Timestamp;Y;F3;F4;P7;FC6;F7;F8;T7;P8;FC5;AF4;Unknown;T8;X;O2;O1;AF3;QY;QF3;QF4;QP7;QFC6;QF7;QF8;QT7;QP8;QFC5;QAF4;QUnknown;QT8;QX;QO2;QO1;QAF3
1480357158.0;22;-25;-5;36;-44;250;-118;-49;-27;14;-112;17;2;21;8;50;-81;0;6;3;6;6;5;5;4;3;6;3;0;5;0;5;2;6
1480357158.01;22;-11;5;34;-36;250;-101;-39;-7;35;-109;18;21;21;19;47;-63;0;6;3;6;6;5;5;4;3;6;3;0;5;0;5;2;6
1480357158.01;22;-1;19;32;7;254;-53;-36;24;44;-74;19;55;21;49;52;-43;0;6;3;6;6;5;5;4;3;6;3;0;5;0;5;2;6
1480357158.02;22;0;41;30;40;254;-14;-38;38;32;-47;20;86;21;65;64;-33;0;6;3;6;6;5;5;4;3;6;3;0;5;0;5;2;6
1480357158.03;22;-5;35;36;28;254;-30;-44;38;36;-62;21;81;22;65;64;-30;0;6;3;6;6;5;5;4;3;6;3;0;5;0;5;2;6
1480357158.03;22;-5;35;36;28;254;-30;-44;38;36;-62;21;81;22;65;64;-30;0;6;3;6;6;5;5;4;3;6;3;0;5;0;5;2;6
1480357158.04;22;1;21;51;3;258;-60;-70;29;48;-81;22;53;21;57;65;-37;0;6;3;6;6;5;5;4;3;6;3;0;5;0;5;2;6
1480357158.05;22;0;13;53;-13;246;-68;-92;13;40;-95;23;36;21;31;66;-52;0;6;3;6;6;5;5;4;3;6;3;0;5;0;5;2;6
1480357158.05;22;-19;-4;46;-26;225;-78;-83;-5;28;-115;24;29;21;4;59;-65;0;6;3;6;6;5;5;4;3;6;3;0;5;0;5;2;6
1480357158.06;22;-33;-3;42;-25;221;-82;-66;-9;25;-115;25;20;21;5;58;-71;0;6;3;6;6;5;5;4;3;6;3;0;5;0;5;2;6
1480357158.07;22;-26;2;44;-10;229;-67;-45;-3;31;-101;26;27;21;22;62;-63;0;6;3;6;6;5;5;4;3;6;3;0;5;0;5;2;6
1480357158.08;22;-16;7;48;1;228;-54;-26;-6;45;-91;27;49;21;28;61;-48;0;6;3;6;6;5;5;4;3;6;3;0;5;0;5;2;6
1480357158.08;22;-8;19;38;10;222;-40;-23;2;48;-78;28;58;21;28;60;-33;0;6;3;6;6;5;5;4;3;6;3;0;5;0;5;2;6
1480357158.09;22;-8;19;38;10;222;-40;-23;2;48;-78;28;58;21;28;60;-33;0;6;3;6;6;5;5;4;3;6;3;0;5;0;5;2;6
1480357158.1;22;19;34;33;36;219;-11;-19;29;48;-52;29;66;22;37;62;-13;0;6;3;6;6;5;5;4;3;6;3;0;5;0;5;2;6
1480357158.1;22;35;54;38;45;208;-7;-14;32;49;-41;30;71;21;39;68;-5;0;6;3;6;6;5;5;4;3;6;3;0;5;0;5;2;6
1480357158.11;22;13;36;36;19;185;-33;-19;6;40;-63;31;53;21;24;72;-29;0;6;3;6;6;5;5;4;3;6;3;0;5;0;5;2;6
1480357158.12;22;-8;15;39;3;170;-42;-17;-10;26;-75;32;28;21;14;70;-49;0;6;3;6;6;5;5;4;3;6;3;0;5;0;5;2;6
1480357158.12;23;-3;32;50;16;178;-28;6;-6;30;-57;33;31;21;23;67;-34;0;6;3;6;6;5;5;4;3;6;3;0;5;0;5;2;6
1480357158.13;23;8;34;46;36;186;-16;16;13;44;-41;34;57;21;37;70;-21;0;6;3;6;6;5;5;4;3;6;3;0;5;0;5;2;6
1480357158.14;23;3;30;28;27;174;-24;-6;28;44;-49;35;65;21;37;63;-36;0;6;3;6;6;5;5;4;3;6;3;0;5;0;5;2;6
1480357158.14;23;3;30;28;27;174;-24;-6;28;44;-49;35;65;21;37;63;-36;0;6;3;6;6;5;5;4;3;6;3;0;5;0;5;2;6
1480357158.15;23;-10;17;21;-3;161;-37;-46;17;34;-68;36;44;21;24;40;-51;0;6;3;6;6;5;5;4;3;6;3;0;5;0;5;2;6
1480357158.16;23;-15;1;19;-14;160;-38;-81;0;29;-72;37;28;21;16;22;-57;0;6;3;6;6;5;5;4;3;6;3;0;5;0;5;2;6
1480357158.16;23;-14;7;16;-3;156;-28;-96;1;29;-66;38;35;21;10;23;-58;0;6;3;6;6;5;5;4;3;6;3;0;5;0;5;2;6
1480357158.17;23;-14;6;29;14;155;-16;-96;9;28;-66;39;52;21;14;25;-49;0;6;3;6;6;5;5;4;3;6;3;0;5;0;5;2;6
1480357158.18;23;-10;13;46;25;166;0;-93;21;36;-52;40;64;21;27;20;-34;0;6;3;6;6;5;5;4;3;6;3;0;5;0;5;2;6
1480357158.18;23;6;29;44;38;171;13;-80;34;50;-30;41;72;21;36;10;-19;0;6;3;6;6;5;5;4;3;6;3;0;5;0;5;2;6
1480357158.19;23;6;22;43;34;155;0;-64;34;44;-36;42;67;21;36;-12;-21;0;6;3;6;6;5;5;4;3;6;3;0;5;0;5;2;6
1480357158.2;23;6;22;43;34;155;0;-64;34;44;-36;42;67;21;36;-12;-21;0;6;3;6;6;5;5;4;3;6;3;0;5;0;5;2;6
1480357158.2;23;-5;4;47;10;144;-25;-45;25;26;-57;43;50;21;27;-30;-29;0;6;3;6;6;5;5;4;3;6;3;0;5;0;5;2;6
1480357158.21;23;1;-22;45;-3;150;-32;-30;12;32;-65;44;38;21;11;-42;-29;0;6;3;6;6;5;5;4;3;6;3;0;5;0;5;2;6
1480357158.22;23;-6;-38;43;-9;147;-29;-27;-1;40;-64;45;30;21;-4;-60;-33;0;6;3;6;6;5;5;4;3;6;3;0;5;0;5;2;6
1480357158.23;23;-23;-41;50;-13;143;-36;-16;1;36;-67;46;25;21;-3;-69;-40;0;6;3;6;6;5;5;4;3;6;3;0;5;0;5;2;6
1480357158.23;23;-15;-37;52;-10;151;-34;3;11;46;-64;47;30;21;-2;-66;-33;0;6;3;6;6;5;5;4;3;6;3;0;5;0;5;2;6
1480357158.24;23;2;-21;52;-2;157;-21;13;10;56;-53;48;36;21;-2;-60;-18;0;6;3;6;6;5;5;4;3;6;3;0;5;0;5;2;6
1480357158.25;23;2;-21;52;-2;157;-21;13;10;56;-53;48;36;21;-2;-60;-18;0;6;3;6;6;5;5;4;3;6;3;0;5;0;5;2;6
1480357158.25;23;4;-26;61;1;152;-17;10;9;56;-55;49;42;22;4;-57;-24;0;6;3;6;6;5;5;4;3;6;3;0;5;0;5;2;6
1480357158.26;23;-7;-36;60;-1;145;-19;3;13;46;-60;50;48;21;2;-56;-36;0;6;3;6;6;5;5;4;3;6;3;0;5;0;5;2;6
1480357158.27;23;-4;-23;58;10;149;-4;3;21;36;-37;51;59;21;6;-50;-22;0;6;3;6;6;5;5;4;3;6;3;0;5;0;5;2;6
1480357158.27;23;25;7;64;44;158;30;-1;33;47;-7;52;82;21;31;-33;7;0;6;3;6;6;5;5;4;3;6;3;0;5;0;5;2;6
1480357158.28;23;46;28;61;58;152;37;-36;38;55;0;53;91;21;45;-22;9;0;6;3;6;6;5;5;4;3;6;3;0;5;0;5;2;6
1480357158.29;22;26;5;59;34;128;12;-74;33;37;-17;54;75;21;27;-30;-14;0;6;3;6;6;5;5;4;3;6;3;0;5;0;5;2;6
1480357158.3;22;4;-13;61;26;111;5;-71;22;23;-36;55;60;21;10;-31;-29;0;6;3;6;6;5;5;4;3;6;3;0;5;0;5;2;6
1480357158.3;22;4;-13;61;26;111;5;-71;22;23;-36;55;60;21;10;-31;-29;0;6;3;6;6;5;5;4;3;6;3;0;5;0;5;2;6
1480357158.31;22;1;-14;62;26;99;6;-63;5;16;-42;56;46;21;4;-26;-35;0;6;3;6;6;5;5;4;3;6;3;0;5;0;5;2;6
1480357158.32;22;2;-21;59;18;81;0;-67;-6;0;-41;57;34;21;-5;-29;-40;0;6;3;6;6;5;5;4;3;6;3;0;5;0;5;2;6
1480357158.32;22;7;-8;57;23;76;5;-51;8;2;-33;58;43;21;2;-31;-37;0;6;3;6;6;5;5;4;3;6;3;0;5;0;5;2;6
1480357158.33;22;5;-14;60;26;86;13;-27;30;11;-35;59;64;21;24;-27;-30;0;6;3;6;6;5;5;4;3;6;3;0;5;0;5;2;6
1480357158.34;22;-3;-35;65;20;93;18;-10;37;11;-42;60;68;21;35;-23;-32;0;6;3;6;6;5;5;4;3;6;3;0;5;0;5;2;6
1480357158.34;22;-7;-33;53;17;86;16;-6;24;13;-45;61;54;21;20;-30;-44;0;6;3;6;6;5;5;4;3;6;3;0;5;0;5;2;6
1480357158.35;22;-2;-25;43;17;87;2;2;8;16;-45;62;39;22;1;-36;-36;0;6;3;6;6;5;5;4;3;6;3;0;5;0;5;2;6
1480357158.36;22;-2;-25;43;17;87;2;2;8;16;-45;62;39;22;1;-36;-36;0;6;3;6;6;5;5;4;3;6;3;0;5;0;5;2;6
1480357158.36;22;12;-7;41;18;105;1;12;8;25;-32;63;38;21;-5;-32;-21;0;6;3;6;6;5;5;4;3;6;3;0;5;0;5;2;6
1480357158.37;22;27;-4;37;28;124;18;13;18;38;-24;63;50;21;-5;-30;-19;0;6;3;6;6;5;5;4;3;6;3;0;5;0;5;2;6
1480357158.38;22;30;-12;36;35;128;21;19;31;34;-23;63;57;21;8;-34;-13;0;6;3;6;6;5;5;4;3;6;3;0;5;0;5;2;6
1480357158.38;23;29;4;37;27;110;13;23;36;27;-18;63;54;21;18;-32;0;0;6;3;6;6;5;5;4;3;6;3;0;5;0;5;2;6
1480357158.39;23;37;16;39;29;100;25;24;33;33;-4;63;57;21;17;-19;6;0;6;3;6;6;5;5;4;3;6;3;0;5;0;5;2;6
1480357158.4;23;51;30;51;49;112;35;27;39;31;10;63;64;21;21;-5;16;0;6;3;6;6;5;5;5;3;6;3;0;5;0;5;2;6
1480357158.41;23;62;40;67;63;123;38;25;50;33;8;63;73;21;33;1;34;0;6;3;6;6;5;5;5;3;6;3;0;5;0;5;2;6
1480357158.41;22;59;34;66;48;120;38;8;42;36;-6;63;69;21;41;2;26;0;6;3;6;6;5;5;5;3;6;3;0;5;0;5;2;6
1480357158.42;22;59;34;66;48;120;38;8;42;36;-6;63;69;21;41;2;26;0;6;3;6;6;5;5;5;3;6;3;0;5;0;5;2;6
1480357158.43;22;39;25;54;26;105;18;-19;24;23;-16;63;48;21;25;-1;1;0;6;3;6;6;5;5;5;3;6;3;0;5;0;5;2;6
1480357158.43;22;40;21;55;29;102;10;-25;26;27;-16;63;45;22;8;-4;1;0;6;3;6;6;5;5;5;3;6;3;0;5;0;5;2;6
1480357158.44;22;51;37;57;40;114;31;-18;33;46;-6;63;64;22;11;-2;8;0;6;3;6;6;5;5;5;3;6;3;0;5;0;5;2;6
1480357158.45;22;34;28;60;32;115;31;-22;31;36;-15;63;57;22;13;2;0;0;6;3;6;6;5;5;5;3;6;3;0;5;0;5;2;6
1480357158.45;22;14;-6;62;11;97;2;-29;24;18;-37;63;29;22;0;0;-10;0;6;3;6;6;5;5;5;3;6;3;0;5;0;5;2;6
1480357158.46;22;22;0;65;11;86;2;-13;24;21;-39;63;40;21;-3;-2;-14;0;6;3;6;6;5;5;5;3;6;3;0;5;0;5;2;6
1480357158.47;22;34;8;66;32;91;28;8;35;20;-25;63;68;21;8;1;-9;0;6;3;6;6;5;5;5;3;6;3;0;5;0;5;2;6
1480357158.47;22;34;8;66;32;91;28;8;35;20;-25;63;68;21;8;1;-9;0;6;3;6;6;5;5;5;3;6;3;0;5;0;5;2;6
1480357158.48;22;23;-3;58;34;80;23;-3;35;1;-24;63;59;21;5;1;-11;0;6;3;6;6;5;5;5;3;6;3;0;5;0;5;2;6
1480357158.49;22;19;-7;55;23;65;12;-4;27;-5;-25;63;51;21;0;-3;-18;0;6;3;6;6;5;5;5;3;6;3;0;5;0;5;2;6
1480357158.49;22;37;7;64;42;67;31;16;40;4;-8;63;64;21;17;-4;-9;0;6;3;6;6;5;5;5;3;6;3;0;5;0;5;2;6
1480357158.5;22;54;34;67;58;61;43;15;60;1;6;81;65;21;34;4;5;0;6;3;6;6;5;5;5;3;6;3;3;5;0;5;2;6
1480357158.51;22;63;42;64;44;36;34;0;61;-2;7;82;63;21;36;9;4;0;6;3;6;6;5;5;5;3;6;3;5;5;0;5;2;6
1480357158.52;22;61;49;64;41;20;30;-3;57;1;13;83;62;21;38;4;5;0;6;3;6;6;5;5;5;3;6;3;3;5;0;5;2;6
1480357158.52;22;37;38;65;35;28;23;-5;49;-11;6;84;46;21;40;3;-4;0;6;3;6;6;5;5;5;3;6;3;6;5;0;5;2;6
1480357158.53;22;37;38;65;35;28;23;-5;49;-11;6;84;46;21;40;3;-4;0;6;3;6;6;5;5;5;3;6;3;6;5;0;5;2;6
1480357158.54;22;16;-1;63;7;28;1;-28;31;-18;-28;85;28;21;19;-1;-31;0;6;3;6;6;5;5;5;3;6;3;3;5;0;5;2;6
1480357158.54;22;23;3;50;0;23;-7;-65;17;1;-37;86;26;21;-3;-14;-28;0;6;3;6;6;5;5;5;3;6;3;5;5;0;5;2;6
1480357158.55;23;39;25;35;21;45;7;-96;24;21;-11;87;35;22;3;-31;2;0;6;3;6;6;5;5;5;3;6;3;3;5;0;5;2;6
1480357158.56;22;37;27;34;23;57;13;-121;32;19;-2;88;39;22;5;-34;9;0;6;3;6;6;5;5;5;3;6;3;6;5;0;5;2;6
1480357158.56;22;10;1;36;2;39;-4;-131;15;3;-28;89;29;21;-7;-20;-12;0;6;3;6;6;5;5;5;3;6;3;3;5;0;5;2;6
1480357158.57;23;-17;-33;38;-8;22;-20;-120;-5;-7;-49;90;13;21;-10;-10;-35;0;6;3;6;6;5;5;5;3;6;3;5;5;0;5;2;6
1480357158.58;23;-17;-33;38;-8;22;-20;-120;-5;-7;-49;90;13;21;-10;-10;-35;0;6;3;6;6;5;5;5;3;6;3;5;5;0;5;2;6
1480357158.58;22;-6;-17;53;8;25;-1;-100;13;-1;-25;91;20;21;3;-5;-30;0;6;3;6;6;5;5;5;3;6;3;3;5;0;5;2;6
1480357158.59;22;25;14;64;38;40;35;-81;34;11;8;92;49;21;19;-2;-3;0;6;3;6;6;5;5;5;3;6;3;6;5;0;5;2;6
1480357158.6;23;30;21;59;48;43;38;-66;32;16;11;93;61;21;24;-3;2;0;6;3;6;6;5;5;5;3;6;3;3;5;0;5;2;6
1480357158.61;23;28;20;59;43;33;31;-53;42;13;0;94;59;21;27;3;-12;0;6;3;6;6;5;5;5;3;6;3;5;5;0;5;2;6
1480357158.61;23;30;14;56;41;23;37;-50;52;6;-3;95;62;21;34;5;-11;0;6;3;6;6;5;5;5;3;6;3;3;5;0;5;2;6
1480357158.62;22;23;14;44;29;29;31;-52;30;5;1;96;49;21;28;0;-6;0;6;3;6;6;5;5;5;3;6;3;6;5;0;5;2;6
1480357158.63;23;36;25;49;38;56;34;-34;35;29;18;97;43;21;25;6;14;0;6;3;6;6;5;5;5;3;6;3;3;5;0;5;2;6
1480357158.63;23;36;25;49;38;56;34;-34;35;29;18;97;43;21;25;6;14;0;6;3;6;6;5;5;5;3;6;3;3;5;0;5;2;6
1480357158.64;23;72;59;58;70;94;68;3;76;63;50;98;74;22;55;25;52;0;6;3;6;6;5;5;5;3;6;3;5;5;0;5;2;6
1480357158.65;23;71;75;53;61;99;64;8;83;64;50;99;85;21;74;36;47;0;6;3;6;6;5;5;5;3;6;3;3;5;0;5;2;6
1480357158.65;23;35;30;55;22;58;19;-26;55;35;8;100;54;21;62;34;9;0;6;3;6;6;5;5;5;3;6;3;6;5;0;5;2;6
1480357158.66;22;32;17;57;8;32;11;-63;41;20;-5;101;37;21;47;33;0;0;6;3;6;6;5;5;5;3;6;3;3;5;0;5;2;6
1480357158.67;22;56;41;38;12;36;18;-84;36;26;15;102;34;21;32;30;12;0;6;3;6;6;5;5;5;3;6;3;5;5;0;5;2;6
1480357158.67;22;58;47;33;7;29;6;-86;26;17;12;103;24;21;21;21;11;0;6;3;6;6;5;5;5;3;6;3;3;5;0;5;2;6
1480357158.68;22;50;53;55;21;33;22;-74;47;8;16;104;39;21;48;34;18;0;6;3;6;6;5;5;5;3;6;3;6;5;0;5;2;6
1480357158.69;22;50;53;55;21;33;22;-74;47;8;16;104;39;21;48;34;18;0;6;3;6;6;5;5;5;3;6;3;6;5;0;5;2;6
1480357158.69;22;50;62;73;59;54;62;-44;88;27;43;105;85;21;90;62;38;0;6;3;6;6;5;5;5;3;6;3;3;5;0;5;2;6
1480357158.7;22;42;63;67;66;49;66;-20;84;31;42;106;94;21;91;60;27;0;6;3;6;6;5;5;5;3;6;3;5;5;0;5;2;6
1480357158.71;22;25;39;53;38;23;50;-17;54;5;10;107;65;21;60;44;-1;0;6;3;6;6;5;5;5;3;6;3;3;5;0;5;2;6
1480357158.71;22;31;32;59;38;22;54;-13;53;-4;3;108;56;21;41;41;-6;0;6;3;6;6;5;5;5;3;6;3;6;5;0;5;2;6
1480357158.72;22;43;57;58;56;33;58;-1;62;12;27;109;61;21;29;40;5;0;6;3;6;6;5;5;5;3;6;3;3;5;0;5;2;6
1480357158.73;22;36;49;41;47;23;51;5;56;18;29;110;58;21;24;32;5;0;6;3;6;6;5;5;5;3;6;3;5;5;0;5;2;6
1480357158.74;22;24;32;43;29;14;50;9;59;2;13;111;62;21;49;43;-11;0;6;3;6;6;5;5;5;3;6;3;3;5;0;5;2;6
1480357158.74;22;24;32;43;29;14;50;9;59;2;13;111;62;21;49;43;-11;0;6;3;6;6;5;5;5;3;6;3;3;5;0;5;2;6
1480357158.75;22;19;39;55;38;24;54;20;71;-1;12;112;74;21;65;55;-22;0;6;3;6;6;5;5;5;3;6;3;6;5;0;5;2;6
1480357158.76;22;22;33;43;39;33;40;9;64;2;9;113;68;21;45;35;-17;0;6;3;6;6;5;5;5;3;6;3;3;5;0;5;2;6
1480357158.76;22;22;28;25;12;24;15;-6;38;-2;-4;114;41;21;28;26;-10;0;6;3;6;6;5;5;5;3;6;3;5;5;0;5;2;6
1480357158.77;22;29;34;34;1;30;19;5;25;12;1;115;28;21;32;39;-1;0;6;3;6;6;5;5;5;3;6;3;3;5;0;5;2;6
1480357158.78;22;42;56;50;21;54;40;6;46;36;29;116;47;21;27;43;12;0;6;3;6;6;5;5;5;3;6;3;6;5;0;5;2;6
1480357158.78;22;32;60;59;31;50;41;-17;64;27;29;117;67;21;23;43;7;0;6;3;6;6;5;5;5;3;6;3;3;5;0;5;2;6
1480357158.79;22;9;25;68;10;31;16;-32;62;1;-4;118;66;21;50;56;-10;0;6;3;6;6;5;5;5;3;6;3;5;5;0;5;2;6
1480357158.8;22;9;25;68;10;31;16;-32;62;1;-4;118;66;21;50;56;-10;0;6;3;6;6;5;5;5;3;6;3;5;5;0;5;2;6
1480357158.8;22;3;2;79;-17;26;-3;-35;62;5;-25;119;49;21;67;70;-13;0;6;3;6;6;5;5;5;3;6;3;3;5;0;5;2;6
1480357158.81;22;23;7;94;-10;33;7;-26;59;28;-20;120;32;21;47;75;0;0;6;3;6;6;5;5;5;3;6;3;6;5;0;5;2;6
1480357158.82;22;51;40;88;17;44;27;-7;48;32;8;121;31;21;26;76;16;0;6;3;6;6;5;5;5;3;6;3;3;5;0;5;2;6
1480357158.82;22;60;77;65;36;55;46;2;53;25;31;122;51;21;30;67;27;0;6;3;6;6;5;5;5;3;6;3;5;5;0;5;2;6
1480357158.83;22;53;88;60;51;61;60;12;67;35;38;123;76;21;51;60;31;0;6;3;6;6;5;5;5;3;6;3;3;5;0;5;2;6
1480357158.84;22;53;88;60;51;61;60;12;67;35;38;123;76;21;51;60;31;0;6;3;6;6;5;5;5;3;6;3;3;5;0;5;2;6
1480357158.84;22;54;92;63;65;51;65;27;64;44;40;124;90;21;65;67;30;0;6;3;6;6;5;5;5;3;6;3;6;5;0;5;2;6
1480357158.85;22;61;76;57;66;41;61;25;65;43;39;125;91;21;55;68;34;0;6;3;6;6;5;5;5;3;6;3;3;5;0;5;2;6
1480357158.86;22;44;50;46;39;41;45;5;59;43;26;126;73;21;33;54;21;0;6;3;6;6;5;5;5;3;6;3;5;5;0;5;2;6
1480357158.87;22;21;32;43;-1;38;17;-14;34;34;-2;127;44;21;23;45;-5;0;6;3;6;6;5;5;5;3;6;3;3;5;0;5;2;6
1480357158.87;22;22;24;52;-7;30;10;-20;38;25;-12;244;39;21;27;52;-6;0;6;3;6;6;5;5;5;3;6;3;6;5;0;5;2;6
1480357158.88;22;25;46;62;18;28;35;-14;63;27;5;244;62;21;38;62;8;0;6;3;6;6;5;5;5;3;6;3;6;5;0;5;2;6
1480357158.89;22;25;55;64;35;33;57;-10;66;33;18;244;90;21;51;66;13;0;6;3;6;6;5;5;5;3;6;3;6;5;0;5;2;6
1480357158.89;22;25;55;64;35;33;57;-10;66;33;18;244;90;21;51;66;13;0;6;3;6;6;5;5;5;3;6;3;6;5;0;5;2;6
1480357158.9;22;41;58;67;45;32;63;-7;74;46;26;244;96;21;58;65;19;0;6;3;6;6;5;5;5;3;6;3;6;5;0;5;2;6
1480357158.91;22;55;82;69;58;31;63;10;85;50;37;244;88;21;49;68;31;0;6;3;6;6;5;5;5;3;6;3;6;5;0;5;2;6
1480357158.91;22;48;80;66;65;40;69;27;73;42;35;244;91;21;37;74;34;0;6;3;6;6;5;5;5;3;6;3;6;5;0;5;2;6
1480357158.92;22;32;67;61;59;32;65;27;58;37;24;244;89;21;36;68;19;0;6;3;8;6;5;5;5;3;6;3;6;5;0;5;2;6
1480357158.93;22;18;49;57;39;10;39;26;42;29;7;244;67;21;27;63;-2;0;6;3;8;6;5;5;5;3;6;3;6;5;0;5;2;6
1480357158.93;22;18;43;64;22;8;29;41;33;27;0;244;54;21;16;81;-5;0;6;3;8;6;5;5;5;3;6;3;6;5;0;4;2;6
1480357158.94;22;31;67;82;33;30;48;60;51;41;23;244;64;21;23;88;17;0;6;3;8;6;5;5;5;3;6;3;6;5;0;4;2;6
1480357158.95;22;31;67;82;33;30;48;60;51;41;23;244;64;21;23;88;17;0;6;3;8;6;5;5;5;3;6;3;6;5;0;4;2;6
1480357158.95;23;39;61;92;37;37;48;70;56;49;27;244;70;21;32;69;29;0;6;3;8;6;5;5;5;3;6;3;6;5;0;4;2;6
1480357158.96;23;30;39;86;4;26;21;75;41;42;3;244;58;21;26;64;14;0;6;3;8;6;5;5;5;3;6;3;6;5;0;4;2;6
1480357158.97;23;28;41;85;2;30;23;84;49;45;6;244;58;21;26;60;13;0;6;3;8;6;5;5;5;3;6;5;6;5;0;4;2;6
1480357158.97;23;37;56;90;44;46;50;80;64;54;29;244;76;21;40;37;30;0;6;3;8;6;5;5;5;3;6;5;6;5;0;4;2;6
1480357158.98;23;41;65;89;56;54;62;55;62;56;46;244;90;21;48;29;36;0;6;3;8;6;5;5;5;3;6;5;6;5;0;4;2;6
1480357158.99;23;39;55;87;41;60;65;35;62;67;51;244;96;21;41;20;38;0;6;3;8;6;5;5;5;3;6;5;6;5;0;4;2;6
1480357159.0;23;35;45;88;43;57;67;30;56;63;49;244;88;21;30;-4;43;0;6;3;8;6;5;5;5;3;6;5;6;5;0;4;2;6
1480357159.0;23;35;45;88;43;57;67;30;56;63;49;244;88;21;30;-4;43;0;6;3;8;6;5;5;5;3;6;5;6;5;0;4;2;6
1480357159.01;23;21;17;83;31;40;56;29;35;42;33;16;67;21;18;-21;28;0;6;3;8;6;5;5;5;3;6;5;0;5;0;4;2;6
1480357159.02;23;-2;-21;84;2;27;45;27;21;30;15;17;53;21;3;-28;3;0;6;3;8;6;5;5;5;3;6;5;0;5;0;4;2;6
1480357159.02;23;-5;-19;87;8;18;55;24;23;33;10;18;57;21;-6;-30;-4;0;6;3;8;6;5;5;5;3;6;5;0;5;0;4;2;6
1480357159.03;23;5;-19;75;32;13;61;31;29;37;17;19;62;21;-2;-39;6;0;6;3;8;6;5;5;5;3;6;5;0;5;0;4;2;6
1480357159.04;23;5;-26;66;29;13;55;50;27;32;31;20;57;21;9;-57;14;0;6;3;8;6;5;5;5;3;6;5;0;5;0;4;2;6
1480357159.04;23;10;-17;77;23;11;53;77;27;33;31;21;59;21;13;-56;7;0;6;3;8;6;5;5;5;3;6;5;0;5;0;4;2;6
1480357159.05;23;27;-6;90;27;5;53;95;29;35;25;22;63;21;13;-31;7;0;6;3;8;6;5;5;5;3;6;5;0;5;0;4;2;6
1480357159.06;23;27;-6;90;27;5;53;95;29;35;25;22;63;21;13;-31;7;0;6;3;8;6;5;5;5;3;6;5;0;5;0;4;2;6
1480357159.06;23;31;14;84;28;0;49;91;31;32;37;23;57;21;17;-23;24;0;6;3;8;6;5;5;5;3;6;5;0;5;0;4;2;6
1480357159.07;23;29;19;80;26;3;50;92;32;31;46;24;50;21;22;-33;33;0;6;3;8;6;5;5;5;3;6;5;0;5;0;4;2;6
1480357159.08;23;29;16;84;31;7;56;112;36;43;42;25;62;21;31;-28;26;0;6;3;8;6;5;5;5;3;6;5;0;5;0;4;2;6
1480357159.08;23;26;21;88;36;12;61;99;37;50;43;26;79;21;42;-18;25;0;6;3;8;6;5;5;5;3;6;5;0;5;0;4;2;6
1480357159.09;22;36;20;90;40;20;68;61;32;51;46;27;74;21;37;-26;33;0;6;3;8;6;5;5;5;3;6;5;0;5;0;4;2;6
1480357159.1;22;36;20;90;40;20;68;61;32;51;46;27;74;21;37;-26;33;0;6;3;8;6;5;5;5;3;6;5;0;5;0;4;2;6
1480357159.1;23;49;22;85;49;25;71;45;28;59;50;28;61;21;22;-28;34;0;6;3;8;6;5;5;5;3;6;5;0;5;0;4;2;6
1480357159.11;22;44;11;77;50;18;65;44;19;57;47;29;63;21;18;-14;34;0;6;3;8;6;5;5;5;3;6;5;0;5;0;4;2;6
1480357159.12;23;33;8;63;33;12;57;42;2;49;42;30;66;21;15;-10;29;0;6;3;8;6;5;5;5;3;6;5;0;5;0;4;2;6
1480357159.12;22;32;18;56;21;15;54;47;-6;41;41;31;55;21;15;-18;24;0;6;3;8;6;5;5;5;3;6;5;0;5;0;4;2;6
1480357159.13;23;37;14;71;34;11;54;59;11;43;39;32;61;21;29;-14;29;0;6;3;8;6;5;5;5;3;6;5;0;5;0;4;2;6
1480357159.14;22;34;12;87;37;-3;54;71;26;40;36;33;81;21;32;-6;28;0;6;3;8;6;5;5;5;3;6;5;0;5;0;4;2;6
1480357159.14;22;34;12;87;37;-3;54;71;26;40;36;33;81;21;32;-6;28;0;6;3;8;6;5;5;5;3;6;5;0;5;0;4;2;6
1480357159.15;22;27;2;92;24;-4;59;86;28;38;26;34;85;21;28;2;22;0;6;3;8;6;5;5;5;3;6;5;0;5;0;4;2;6
1480357159.16;22;30;-1;92;36;12;66;103;34;48;30;35;86;21;34;15;26;0;6;3;8;6;5;5;5;3;6;5;0;5;0;4;2;6
1480357159.16;22;40;11;92;50;19;64;117;30;56;45;36;86;22;32;15;33;0;6;3;8;6;5;5;5;3;6;5;0;5;0;4;2;6
1480357159.17;22;47;7;90;39;23;61;129;8;65;54;37;71;22;23;3;44;0;6;3;8;6;5;5;5;3;6;5;0;5;0;4;2;6
1480357159.18;22;43;9;88;25;30;60;142;7;74;54;38;54;22;23;2;49;0;6;3;8;6;5;5;5;3;6;5;0;5;0;4;2;6
1480357159.18;22;35;3;89;26;28;54;155;31;75;45;39;57;22;32;5;39;0;6;3;8;6;5;5;5;3;6;5;0;5;0;4;2;6
1480357159.19;22;35;3;89;26;28;54;155;31;75;45;39;57;22;32;5;39;0;6;3;8;6;5;5;5;3;6;5;0;5;0;4;2;6
1480357159.2;22;31;-7;88;38;25;56;154;37;63;34;40;76;22;36;4;27;0;6;3;8;6;5;5;5;3;6;5;0;5;0;4;2;6
1480357159.2;22;26;0;84;41;19;62;147;27;57;33;41;79;22;29;7;26;0;6;3;8;6;5;5;5;3;6;5;0;5;0;4;2;6
1480357159.21;22;29;1;85;37;8;62;152;27;64;40;42;76;22;27;17;33;0;6;3;8;6;5;5;5;3;6;5;0;5;0;4;2;6
1480357159.22;22;43;11;93;53;11;72;156;35;67;43;43;86;22;41;33;42;0;6;3;8;6;5;5;5;3;6;5;0;5;0;4;2;6
1480357159.22;22;43;18;86;65;24;81;134;33;61;36;44;92;22;49;38;38;0;6;3;8;6;5;5;5;3;6;5;0;5;0;4;2;6
1480357159.23;22;43;18;86;65;24;81;134;33;61;36;44;92;22;49;38;38;0;6;3;8;6;5;5;5;3;6;5;0;5;0;4;2;6
1480357159.24;22;15;-3;63;38;-4;63;84;13;43;15;45;72;22;29;11;10;0;6;3;8;6;5;5;5;3;6;5;0;5;0;4;2;6
1480357159.24;22;-1;-13;57;15;-36;42;51;-6;33;11;46;51;22;2;-6;-6;0;6;3;8;6;5;5;5;3;6;5;0;5;0;4;2;6
1480357159.25;22;23;-3;65;29;-15;41;57;2;39;31;47;49;21;-4;13;3;0;6;3;8;6;5;5;5;3;6;5;0;5;0;4;2;6
1480357159.26;22;32;6;60;20;-7;36;59;-4;45;34;48;41;21;-2;27;-2;0;6;3;8;6;5;5;5;3;6;5;0;5;0;4;2;6
1480357159.27;22;16;-7;54;-5;-22;25;51;-26;51;6;49;28;21;-6;23;-25;0;6;3;8;6;5;5;5;3;6;5;0;5;0;4;2;6
1480357159.27;22;18;-19;63;0;-9;23;58;-23;59;-5;50;30;21;-1;24;-24;0;6;3;8;6;5;5;5;3;6;5;0;5;0;4;2;6
1480357159.28;22;18;-19;63;0;-9;23;58;-23;59;-5;50;30;21;-1;24;-24;0;6;3;8;6;5;5;5;3;6;5;0;5;0;4;2;6
1480357159.29;22;30;0;56;15;3;30;69;-2;49;17;51;42;21;11;26;-10;0;6;3;8;6;5;5;5;3;6;5;0;5;0;4;2;6
1480357159.29;22;33;18;44;39;1;55;80;19;38;42;52;64;21;24;23;1;0;6;3;8;6;5;5;5;3;6;5;0;5;0;4;2;6
1480357159.3;22;33;34;50;66;5;76;94;29;48;51;53;78;21;30;20;9;0;6;3;8;6;5;5;5;3;6;5;0;5;0;4;2;6
1480357159.31;22;25;27;56;53;-1;57;100;12;45;36;54;61;21;14;20;-2;0;6;3;8;6;5;5;5;3;6;5;0;5;0;4;2;6
1480357159.31;22;5;-6;54;24;-31;33;95;-7;14;11;55;38;21;-6;20;-32;0;6;3;8;6;5;5;5;3;6;5;0;5;0;4;2;6
1480357159.32;22;-8;-10;56;19;-46;37;96;1;-4;6;56;40;21;-3;22;-40;0;6;3;8;6;5;5;5;3;6;5;0;5;0;4;2;6
1480357159.33;22;-7;-7;64;18;-37;41;93;11;19;11;57;47;21;14;29;-29;0;6;3;8;6;5;5;5;3;6;5;0;5;0;4;2;6
1480357159.33;22;-7;-7;64;18;-37;41;93;11;19;11;57;47;21;14;29;-29;0;6;3;8;6;5;5;5;3;6;5;0;5;0;4;2;6
1480357159.34;22;-4;-10;64;5;-33;24;71;5;34;2;58;34;21;16;23;-34;0;6;3;8;6;5;5;5;3;6;5;0;5;0;4;2;6
1480357159.35;22;-7;-13;50;-4;-35;16;47;-2;23;-12;59;21;21;0;7;-45;0;6;3;8;6;5;5;5;3;6;5;0;5;0;4;2;6
1480357159.35;22;-7;-10;40;9;-19;29;48;-5;29;-6;60;27;21;-1;9;-39;0;6;3;8;6;5;5;5;3;6;5;0;5;0;4;2;6
1480357159.36;23;12;17;40;25;-4;37;56;-2;43;20;61;32;21;15;25;-23;0;6;3;8;6;5;5;5;3;6;5;0;5;0;4;2;6
1480357159.37;23;31;26;36;20;-12;33;60;-1;43;27;62;30;21;15;21;-8;0;6;3;8;6;5;5;5;3;6;5;0;5;0;4;2;6
1480357159.38;23;36;22;35;7;-11;30;76;3;50;18;63;33;21;3;13;2;0;6;3;8;6;5;5;5;3;6;5;0;5;0;4;2;6
1480357159.38;23;29;20;39;-1;0;19;93;-5;56;15;63;31;21;-2;23;-6;0;6;3;8;6;5;5;5;3;6;5;0;5;0;4;2;6
1480357159.39;23;29;20;39;-1;0;19;93;-5;56;15;63;31;21;-2;23;-6;0;6;3;8;6;5;5;5;3;6;5;0;5;0;4;2;6
1480357159.39;23;10;-10;42;-13;-14;-4;97;-22;42;0;63;18;21;-3;18;-26;0;6;3;8;6;5;5;5;3;6;5;0;5;0;4;2;6
1480357159.4;23;-9;-23;39;-18;-25;1;96;-25;38;-15;63;14;21;-10;4;-39;0;6;3;8;6;5;5;5;3;6;5;0;5;0;4;2;6
1480357159.41;23;-1;-13;35;-5;-9;25;97;-20;50;-4;63;23;21;-23;8;-32;0;6;3;8;6;5;5;5;3;6;5;0;5;0;4;2;6
1480357159.41;23;21;6;42;11;2;31;99;-15;58;26;63;26;21;-23;18;-14;0;6;3;8;6;5;5;5;3;6;5;0;5;0;4;2;6
1480357159.42;23;30;28;44;27;2;45;80;-6;55;43;63;31;21;-7;20;1;0;6;3;7;6;5;5;5;3;6;5;0;5;0;4;2;6
1480357159.43;23;30;28;44;27;2;45;80;-6;55;43;63;31;21;-7;20;1;0;6;3;7;6;5;5;5;3;6;5;0;5;0;4;2;6
1480357159.43;23;29;23;37;34;-2;60;41;0;43;39;63;36;21;-1;15;5;0;6;3;7;6;5;5;5;3;6;5;0;5;0;4;2;6
1480357159.44;23;24;20;36;25;-9;42;19;-8;36;36;63;24;21;-6;24;-4;0;6;3;7;6;5;5;5;3;6;5;0;5;0;4;2;6
1480357159.45;23;27;35;49;30;-3;35;27;-6;54;39;63;22;21;1;32;1;0;6;3;7;6;5;5;5;3;6;5;0;5;0;4;2;6
1480357159.46;23;41;46;60;40;5;61;39;9;68;42;63;31;21;12;33;18;0;6;3;7;6;5;5;5;3;6;5;0;5;0;4;2;6
1480357159.46;23;33;32;51;28;1;56;39;-4;56;34;63;13;21;-1;32;7;0;6;3;7;6;5;5;5;3;6;5;0;5;0;4;2;6
1480357159.47;23;10;2;42;23;2;36;44;-28;56;21;63;-7;21;-19;17;-13;0;6;3;7;6;5;5;5;3;6;4;0;5;0;4;2;6
1480357159.48;23;4;6;48;33;7;48;65;-20;64;24;63;-5;21;-14;-1;-5;0;6;3;7;6;5;5;5;3;6;4;0;5;0;4;2;6
1480357159.48;23;4;6;48;33;7;48;65;-20;64;24;63;-5;21;-14;-1;-5;0;6;3;7;6;5;5;5;3;6;4;0;5;0;4;2;6
1480357159.49;23;8;9;53;19;6;51;81;-8;54;26;63;-14;21;-4;-10;-6;0;6;3;7;6;5;5;5;3;6;4;0;5;0;4;2;6
1480357159.5;23;0;-11;45;-1;-4;30;61;-19;46;12;63;-32;21;-9;-8;-29;0;6;3;7;6;5;5;5;3;6;4;0;5;0;4;2;6
1480357159.5;23;1;0;50;8;-21;30;25;-15;46;7;63;-27;21;-13;-1;-38;0;6;3;7;6;5;5;5;3;6;4;0;5;0;4;2;6
1480357159.51;22;17;24;67;36;-28;65;21;16;39;23;63;-9;21;7;0;-26;0;6;3;7;6;5;5;5;3;6;4;0;5;0;4;2;6
1480357159.52;22;24;39;66;59;-28;84;27;34;26;40;81;2;21;34;5;-15;0;6;3;7;6;5;5;5;3;6;4;3;5;0;4;2;6
1480357159.53;22;27;45;59;60;-37;71;26;29;31;46;82;-3;21;33;17;-7;0;6;3;7;6;5;5;5;3;6;4;5;5;0;4;2;6
1480357159.53;22;32;45;66;41;-43;53;40;15;34;44;83;-22;21;17;17;-6;0;6;3;7;6;5;5;5;3;6;4;4;5;0;4;2;6
1480357159.54;22;32;45;66;41;-43;53;40;15;34;44;83;-22;21;17;17;-6;0;6;3;7;6;5;5;5;3;6;4;4;5;0;4;2;6
1480357159.54;22;30;48;70;27;-50;39;60;4;20;33;84;-34;21;9;7;-20;0;6;3;7;6;5;5;5;3;6;4;6;5;0;4;2;6
1480357159.55;22;28;37;73;33;-53;35;77;9;25;24;85;-33;21;13;8;-21;0;6;3;7;6;5;5;5;3;6;4;3;5;0;4;2;6
1480357159.56;22;27;36;73;32;-38;41;95;19;42;34;86;-33;21;19;10;-6;0;6;3;7;6;5;5;5;3;6;4;5;5;0;4;2;6
1480357159.56;22;28;47;67;28;-25;51;90;26;41;40;87;-28;21;22;-1;2;0;6;3;7;6;5;5;5;3;6;4;4;5;0;4;2;6
1480357159.57;22;28;47;67;28;-25;51;90;26;41;40;87;-28;21;22;-1;2;0;6;3;7;6;5;5;5;3;6;4;4;5;0;4;2;6
1480357159.58;22;29;40;57;30;-31;51;57;18;29;37;88;-27;21;13;-19;0;0;6;3;7;6;5;5;5;3;6;4;6;5;0;4;2;6
1480357159.58;22;23;35;51;24;-32;33;26;2;28;35;89;-44;21;-3;-32;-7;0;6;3;7;6;5;5;5;3;6;4;3;5;0;4;2;6
1480357159.59;22;9;24;59;24;-27;32;26;5;36;28;90;-43;21;2;-24;-16;0;6;3;7;6;5;5;5;3;6;4;5;5;0;4;2;6
1480357159.6;22;-4;10;59;30;-31;44;43;19;32;12;91;-29;21;16;-8;-30;0;6;3;7;6;5;5;5;3;6;4;4;5;0;4;2;6
1480357159.61;22;-11;2;55;23;-37;39;57;30;22;5;92;-39;21;23;-1;-42;0;6;3;7;6;5;5;5;3;6;4;6;5;0;4;2;6
1480357159.61;22;0;9;76;22;-26;35;82;39;27;24;93;-42;21;33;17;-30;0;6;3;7;6;5;5;5;3;6;4;3;5;0;4;2;6
1480357159.62;22;12;39;96;29;-18;43;105;41;34;35;94;-38;21;34;35;-6;0;6;3;7;6;5;5;5;3;6;4;5;5;0;4;2;6
1480357159.62;22;12;39;96;29;-18;43;105;41;34;35;94;-38;21;34;35;-6;0;6;3;7;6;5;5;5;3;6;4;5;5;0;4;2;6
1480357159.63;22;6;36;87;27;-23;39;106;34;30;25;95;-55;21;29;28;0;0;6;3;7;6;5;5;5;3;6;4;4;5;0;4;2;6
1480357159.64;22;7;25;75;34;-24;43;89;34;29;23;96;-53;21;29;18;-8;0;6;3;7;6;5;5;5;3;6;4;6;5;0;4;2;6
1480357159.65;22;16;39;76;48;-19;68;63;37;28;38;97;-37;21;34;14;-7;0;6;3;7;6;5;5;5;3;6;4;3;5;0;4;2;6
1480357159.65;22;20;46;66;54;-15;68;38;33;29;42;98;-42;21;30;1;2;0;6;3;7;6;5;5;5;3;6;4;5;5;0;4;2;6
1480357159.66;22;27;58;54;55;-7;59;27;29;46;45;99;-43;21;28;-5;8;0;6;3;7;6;5;5;5;3;6;4;4;5;0;4;2;6
1480357159.67;22;34;48;60;45;6;64;32;31;52;48;100;-36;21;29;1;11;0;6;3;7;6;5;5;5;3;6;4;6;5;0;4;2;6
1480357159.67;22;27;17;63;28;0;48;41;25;38;39;101;-55;21;13;-1;2;0;6;3;7;6;5;5;5;3;6;4;3;5;0;4;2;6
1480357159.68;22;14;13;60;13;-21;25;52;7;25;29;102;-79;22;-6;0;-15;0;6;3;7;6;5;5;5;3;6;4;5;5;0;4;2;6
1480357159.69;22;14;13;60;13;-21;25;52;7;25;29;102;-79;22;-6;0;-15;0;6;3;7;6;5;5;5;3;6;4;5;5;0;4;2;6
1480357159.69;22;13;16;65;9;-32;26;66;-3;19;20;103;-74;22;-3;3;-18;0;6;3;7;6;5;5;5;3;6;4;4;5;0;4;2;6
1480357159.7;22;17;28;61;19;-34;27;82;10;17;18;104;-68;21;17;4;-9;0;6;3;7;6;5;5;5;3;6;4;6;5;0;4;2;6
1480357159.71;22;24;34;62;30;-30;31;94;31;27;25;105;-59;21;31;18;-2;0;6;3;7;6;5;5;5;3;6;4;3;5;0;4;2;6
1480357159.71;22;30;31;85;27;-27;48;96;39;39;26;106;-39;21;32;35;2;0;6;3;7;6;5;5;5;3;6;4;5;5;0;4;2;6
1480357159.72;22;23;34;88;27;-25;48;97;35;26;23;107;-38;22;28;32;-3;0;6;3;7;6;5;5;5;3;6;4;4;5;0;4;2;6
1480357159.73;22;14;29;67;36;-33;34;89;33;11;26;108;-54;21;30;21;-12;0;6;3;7;6;5;5;5;3;6;4;6;5;0;4;2;6
1480357159.73;22;14;29;67;36;-33;34;89;33;11;26;108;-54;21;30;21;-12;0;6;3;7;6;5;5;5;3;6;4;6;5;0;4;2;6
1480357159.74;22;9;40;58;34;-54;37;51;35;5;31;109;-50;21;35;22;-18;0;6;3;7;6;5;5;5;3;6;4;3;5;0;4;2;6
1480357159.75;22;6;46;61;33;-68;51;20;38;-8;26;110;-28;21;35;26;-20;0;6;3;7;6;5;5;5;3;6;4;5;5;0;4;2;6
1480357159.76;22;-3;33;60;36;-68;56;30;39;-17;20;111;-20;21;21;11;-29;0;6;3;7;6;5;5;5;3;6;4;4;5;0;4;2;6
1480357159.76;22;-16;26;63;24;-68;48;56;28;-12;20;112;-33;21;-2;4;-39;0;6;3;7;6;5;5;5;3;6;4;6;5;0;4;2;6
1480357159.77;22;-13;14;67;14;-66;34;75;18;-2;17;113;-49;21;-9;16;-33;0;6;3;7;6;5;5;5;3;6;4;3;5;0;4;2;6
1480357159.78;23;0;17;63;24;-51;28;88;19;8;10;114;-50;21;0;18;-24;0;6;3;7;6;5;5;5;3;6;4;5;5;0;4;2;6
1480357159.78;23;0;17;63;24;-51;28;88;19;8;10;114;-50;21;0;18;-24;0;6;3;7;6;5;5;5;3;6;4;5;5;0;4;2;6
1480357159.79;22;2;25;59;27;-32;35;94;25;19;13;115;-39;21;4;6;-23;0;6;3;7;6;5;5;5;3;6;4;4;5;0;4;2;6
1480357159.8;23;-3;19;66;22;-15;45;100;28;29;21;116;-29;21;-3;-6;-14;0;6;3;7;6;5;5;5;3;6;4;6;5;0;4;2;6
1480357159.8;22;10;26;72;36;-4;57;98;30;28;36;117;-19;21;-10;-21;1;0;6;3;7;6;5;5;5;3;6;4;3;5;0;4;2;6
1480357159.81;23;29;31;71;49;3;66;75;27;25;48;118;-10;21;-9;-37;8;0;6;3;7;6;5;5;5;3;6;4;5;5;0;4;2;6
1480357159.82;23;24;28;81;39;-1;65;51;26;22;41;119;-15;21;-8;-43;9;0;6;3;7;6;5;5;5;3;6;4;4;5;0;4;2;6
1480357159.82;23;24;28;81;39;-1;65;51;26;22;41;119;-15;21;-8;-43;9;0;6;3;7;6;5;5;5;3;6;4;4;5;0;4;2;6
1480357159.83;23;3;16;92;26;-5;58;51;31;15;36;120;-27;22;-8;-51;4;0;6;3;7;6;5;5;5;3;6;4;6;5;0;4;2;6
1480357159.84;23;-6;4;92;35;9;58;64;33;14;51;121;-25;21;-7;-66;-1;0;6;3;7;6;5;5;5;3;6;4;3;5;0;4;2;6
1480357159.84;23;12;28;90;46;20;68;74;31;14;70;122;-15;21;-3;-63;7;0;6;3;7;6;5;5;5;3;6;4;5;5;0;4;2;6
1480357159.85;23;23;34;80;45;12;61;74;33;8;62;123;-19;21;-2;-66;16;0;6;3;7;6;5;5;5;3;6;4;4;5;0;4;2;6
1480357159.86;23;9;13;68;33;7;36;75;30;6;46;124;-34;21;-5;-88;5;0;6;3;7;6;5;5;5;3;6;4;6;5;0;4;2;6
1480357159.86;23;0;6;82;31;24;40;93;31;22;49;125;-26;21;-3;-84;2;0;6;3;7;6;5;5;5;3;6;4;3;5;0;4;2;6
1480357159.87;23;4;5;97;40;38;64;112;38;33;60;126;-3;21;2;-65;16;0;6;3;7;6;5;5;5;3;6;4;5;5;0;4;2;6
1480357159.88;23;4;5;97;40;38;64;112;38;33;60;126;-3;21;2;-65;16;0;6;3;7;6;5;5;5;3;6;4;5;5;0;4;2;6
1480357159.88;22;10;8;86;34;32;59;92;36;24;59;127;-1;21;2;-69;23;0;6;3;7;6;5;5;5;3;6;4;4;5;0;4;2;6
1480357159.89;22;27;9;85;27;32;46;58;31;29;55;244;-10;21;1;-74;28;0;6;3;7;6;5;5;5;3;6;4;6;5;0;4;2;6
1480357159.9;22;33;8;94;30;36;51;42;31;41;56;244;-20;21;2;-61;29;0;6;3;7;6;5;5;5;3;6;4;6;5;0;4;2;6
1480357159.9;22;7;6;90;31;24;52;33;29;23;51;244;-25;21;0;-48;12;0;6;3;7;6;5;5;5;3;6;4;6;5;0;4;2;6
1480357159.91;22;-3;5;89;42;7;54;39;32;3;46;244;-14;21;3;-39;5;0;6;3;7;6;5;5;5;3;6;4;6;5;0;4;2;6
1480357159.92;22;20;24;91;57;-2;62;51;38;7;66;244;0;21;5;-40;21;0;6;3;7;6;5;5;5;3;6;4;6;5;0;4;2;6
1480357159.93;23;34;32;88;64;-2;65;63;37;12;80;244;5;21;3;-57;35;0;6;3;7;6;5;5;5;3;6;4;6;5;0;4;2;6
1480357159.93;23;34;32;88;64;-2;65;63;37;12;80;244;5;21;3;-57;35;0;6;3;7;6;5;5;5;3;6;4;6;5;0;4;2;6
1480357159.94;23;21;20;87;56;2;64;74;34;0;66;244;7;21;4;-53;24;0;6;3;7;6;5;5;5;3;6;4;6;5;0;4;2;6
1480357159.94;23;-1;4;91;34;-9;51;78;30;-15;50;244;-7;21;4;-35;1;0;6;3;7;6;5;5;5;3;6;4;6;5;0;4;2;6
1480357159.95;23;-5;-13;92;21;-28;36;82;27;-15;40;244;-19;21;0;-33;-3;0;6;3;7;6;5;5;5;3;6;4;6;5;0;5;2;6
1480357159.96;23;8;-2;89;24;-24;36;84;30;-6;41;244;-8;21;1;-31;7;0;6;3;7;6;5;5;5;3;6;4;6;5;0;5;2;6
1480357159.97;23;9;6;89;26;5;39;77;30;4;47;244;-3;21;2;-28;15;0;6;3;7;6;5;5;5;3;6;4;6;5;0;5;2;6
1480357159.97;23;4;-5;93;23;23;32;59;25;16;48;244;-18;21;1;-34;18;0;6;3;7;6;5;5;5;3;6;4;6;5;0;5;2;6
1480357159.98;23;4;-5;93;23;23;32;59;25;16;48;244;-18;21;1;-34;18;0;6;3;7;6;5;5;5;3;6;4;6;5;0;5;2;6
1480357159.99;23;-6;-12;92;26;23;26;45;20;21;44;244;-20;21;-9;-37;10;0;6;3;7;6;5;5;5;3;6;4;6;5;0;5;2;6
1480357159.99;23;-21;-29;88;25;24;33;38;20;20;31;244;-8;22;-29;-39;-3;0;6;3;7;6;5;5;5;3;6;4;6;5;0;5;2;6
1480357160.0;23;-21;-19;90;28;27;47;52;26;22;33;244;-1;22;-24;-37;6;0;6;3;7;6;5;5;5;3;6;4;6;5;0;5;2;6
1480357160.01;23;1;12;99;42;32;61;81;31;33;55;244;15;22;5;-21;29;0;6;3;7;6;5;5;5;3;6;4;6;5;0;5;2;6
1480357160.01;23;24;26;102;56;31;65;97;32;33;66;244;35;22;10;-6;35;0;6;3;7;6;5;5;5;3;6;4;6;5;0;5;2;6
1480357160.02;23;23;31;91;56;27;65;101;36;27;59;16;36;22;-2;2;28;0;6;3;7;6;5;5;5;3;6;4;0;5;0;5;2;6
1480357160.03;23;23;31;91;56;27;65;101;36;27;59;16;36;22;-2;2;28;0;6;3;7;6;5;5;5;3;6;4;0;5;0;5;2;6
1480357160.03;23;14;17;84;41;25;60;108;30;34;47;17;18;21;-5;6;29;0;6;3;7;6;5;5;5;3;6;4;0;5;0;5;2;6
1480357160.04;23;18;11;82;26;11;37;108;7;32;44;18;-1;21;-14;6;29;0;6;3;7;6;5;5;5;3;6;4;0;5;0;5;2;6
1480357160.05;23;26;13;72;26;-5;22;100;-5;8;42;19;-6;21;-26;10;22;0;6;3;7;6;5;5;5;3;6;4;0;5;0;5;2;6
1480357160.05;23;16;5;61;30;-8;29;90;1;-5;41;20;0;21;-24;22;16;0;6;3;7;6;5;5;5;3;6;4;0;5;0;5;2;6
1480357160.06;23;-1;4;58;30;0;34;92;1;10;33;21;-1;21;-17;26;15;0;6;3;7;6;5;5;5;3;6;4;0;5;0;5;2;6
1480357160.07;22;1;2;66;32;14;30;103;-5;25;26;22;-3;21;-7;25;23;0;6;3;7;6;5;5;5;3;6;4;0;5;0;5;2;6
1480357160.07;22;1;2;66;32;14;30;103;-5;25;26;22;-3;21;-7;25;23;0;6;3;7;6;5;5;5;3;6;4;0;5;0;5;2;6
1480357160.08;22;1;9;63;34;20;29;89;-6;28;35;23;1;21;-9;29;21;0;6;3;7;6;5;5;5;3;6;4;0;5;0;5;2;6
1480357160.09;23;-3;2;57;24;14;28;48;-4;23;33;24;-5;21;-28;32;6;0;6;3;7;6;5;5;5;3;6;4;0;5;0;5;2;6
1480357160.09;23;-3;-21;75;17;4;27;28;-3;15;17;25;0;21;-34;30;-5;0;6;3;7;6;5;5;5;3;6;4;0;5;0;5;2;6
1480357160.1;22;-12;-14;86;24;-5;30;44;-3;4;19;26;19;21;-22;28;-6;0;6;3;7;6;5;5;5;3;6;4;0;5;0;5;2;6
1480357160.11;22;-15;-7;82;36;-6;36;57;11;5;26;27;38;21;-7;42;1;0;6;3;7;6;5;5;5;3;6;4;0;5;0;5;2;6
1480357160.12;23;-6;-6;89;34;-8;30;63;33;14;14;28;47;21;4;49;1;0;6;3;7;6;5;5;5;3;6;4;0;5;0;5;2;6
1480357160.12;23;-6;-6;89;34;-8;30;63;33;14;14;28;47;21;4;49;1;0;6;3;7;6;5;5;5;3;6;4;0;5;0;5;2;6
1480357160.13;22;0;2;92;25;-20;21;67;30;16;8;29;41;21;6;41;-1;0;6;3;7;6;5;5;5;3;6;4;0;5;0;5;2;6
1480357160.13;22;-2;-1;84;30;-34;27;52;20;19;26;30;35;21;3;40;6;0;6;3;7;6;5;5;5;3;6;4;0;5;0;5;2;6
1480357160.14;22;-4;6;84;38;-39;32;25;16;14;30;31;31;21;4;45;9;0;6;3;7;6;5;5;5;3;6;4;0;5;0;5;2;6
1480357160.15;22;-5;10;91;32;-37;25;15;11;2;14;32;30;21;1;46;4;0;6;3;7;6;5;5;5;3;6;4;0;5;0;5;2;6
1480357160.16;22;-5;14;93;30;-32;26;34;18;7;18;33;42;21;1;55;10;0;6;3;7;6;5;5;5;3;6;4;0;5;0;5;2;6
1480357160.16;22;-2;23;95;33;-28;39;53;33;20;41;34;57;21;3;59;30;0;6;3;7;6;5;5;5;3;6;4;0;5;0;5;2;6
1480357160.17;23;6;26;90;43;-23;50;63;29;18;47;35;61;21;2;50;35;0;6;3;7;6;5;5;5;3;6;4;0;5;0;5;2;6
1480357160.18;23;6;26;90;43;-23;50;63;29;18;47;35;61;21;2;50;35;0;6;3;7;6;5;5;5;3;6;4;0;5;0;5;2;6
1480357160.18;23;14;46;86;59;-22;53;77;26;18;43;36;58;21;11;58;30;0;6;3;7;6;5;5;5;3;6;4;0;5;0;5;2;6
1480357160.19;23;6;45;94;55;-19;40;93;28;31;34;37;51;21;15;66;25;0;6;3;7;6;5;5;5;3;6;4;0;5;0;5;2;6
1480357160.2;23;-5;18;95;30;-14;27;97;17;31;24;38;44;21;3;56;20;0;6;3;7;6;5;5;5;3;6;4;0;5;0;5;2;6
1480357160.2;23;-7;13;82;21;-20;24;94;5;29;15;39;41;21;-4;54;19;0;6;3;7;6;5;5;5;3;6;4;0;5;0;5;2;6
1480357160.21;23;-12;8;78;32;-28;16;88;3;31;5;40;48;21;2;55;13;0;6;3;7;6;5;5;5;3;6;4;0;5;0;5;2;6
1480357160.22;23;-12;8;78;32;-28;16;88;3;31;5;40;48;21;2;55;13;0;6;3;7;6;5;5;5;3;6;4;0;5;0;5;2;6
1480357160.22;23;-25;0;88;21;-31;1;50;-2;14;1;41;50;21;1;54;-4;0;6;3;7;6;5;5;5;3;6;4;0;5;0;5;2;6
1480357160.23;23;-33;-5;88;5;-34;0;11;-3;0;1;42;46;21;-12;55;-8;0;6;3;7;6;5;5;5;3;6;4;0;5;0;5;2;6
1480357160.24;22;-31;1;84;13;-36;13;12;1;3;1;43;45;21;-17;58;3;0;6;3;7;6;5;5;5;3;6;4;0;5;0;5;2;6
1480357160.24;22;-27;11;80;16;-46;9;20;1;1;0;44;45;21;-14;57;-3;0;6;3;7;6;5;5;5;3;6;4;0;5;0;5;2;6
1480357160.25;22;-23;-1;70;18;-52;5;23;-2;-4;-1;45;53;21;-6;54;-10;0;6;3;7;6;5;5;5;3;6;4;0;5;0;5;2;6
1480357160.26;23;-29;-4;73;25;-44;13;42;4;-4;3;46;60;21;2;60;-6;0;6;3;7;6;5;5;5;3;6;4;0;5;0;5;2;6
1480357160.27;23;-39;-4;88;15;-37;10;66;5;-1;-4;47;60;21;-6;66;-9;0;6;3;7;6;5;5;5;3;6;4;0;5;0;5;2;6
1480357160.27;23;-39;-4;88;15;-37;10;66;5;-1;-4;47;60;21;-6;66;-9;0;6;3;7;6;5;5;5;3;6;4;0;5;0;5;2;6
1480357160.28;23;-42;-15;87;-6;-49;-7;68;-17;0;-24;48;53;21;-26;52;-16;0;6;3;7;6;5;5;5;3;6;4;0;5;0;5;2;6
1480357160.29;23;-40;-16;71;-11;-59;-15;60;-32;-10;-29;49;36;21;-40;43;-19;0;6;3;7;6;5;5;5;3;6;4;0;5;0;5;2;6
1480357160.29;23;-30;-16;71;1;-48;-9;72;-17;-19;-14;50;38;21;-34;51;-11;0;6;3;7;6;5;5;5;3;6;4;0;5;0;5;2;6
1480357160.3;22;-26;2;83;16;-33;2;83;3;-10;2;51;62;21;-13;61;-2;0;6;3;7;6;5;5;5;3;6;4;0;5;0;5;2;6
1480357160.31;22;-29;14;89;24;-34;9;63;2;4;4;52;74;21;-3;61;3;0;6;3;7;6;5;5;5;3;6;4;0;5;0;5;2;6
1480357160.31;23;-19;4;86;16;-37;1;31;0;1;-11;53;66;21;-9;62;-4;0;6;3;7;6;5;5;5;3;6;4;0;5;0;5;2;6
1480357160.32;23;-1;19;90;21;-25;9;26;19;-1;-7;54;80;21;3;78;-3;0;6;3;7;6;5;5;5;3;6;4;0;5;0;5;2;6
1480357160.33;23;-1;19;90;21;-25;9;26;19;-1;-7;54;80;21;3;78;-3;0;6;3;7;6;5;5;5;3;6;4;0;5;0;5;2;6
1480357160.33;22;11;42;100;47;-16;36;36;42;10;22;55;106;21;34;93;19;0;6;3;7;6;5;5;5;3;6;4;0;5;0;5;2;6
1480357160.34;22;13;52;95;61;-29;38;26;44;6;39;56;107;21;35;89;33;0;6;3;7;6;5;5;5;3;6;4;0;5;0;5;2;6
1480357160.35;22;11;53;90;56;-31;29;21;34;-7;32;57;97;21;18;87;27;0;6;3;7;6;5;5;5;3;6;4;0;5;0;5;2;6
1480357160.35;22;5;45;95;46;-26;34;33;20;-4;16;58;92;21;13;85;11;0;6;3;7;6;5;5;5;3;6;4;0;5;0;5;2;6
1480357160.36;22;-6;35;85;29;-37;23;37;0;-2;10;59;77;21;-2;69;-4;0;6;3;7;6;5;5;5;3;6;4;0;5;0;5;2;6
1480357160.37;22;-1;30;82;26;-30;13;46;6;0;15;60;73;21;-3;69;10;0;6;3;7;6;5;5;5;3;6;4;0;5;0;5;2;6
1480357160.37;22;-1;30;82;26;-30;13;46;6;0;15;60;73;21;-3;69;10;0;6;3;7;6;5;5;5;3;6;4;0;5;0;5;2;6
1480357160.38;22;20;58;102;50;7;35;83;34;22;36;61;98;21;25;92;47;0;6;3;7;6;5;5;5;3;6;4;0;5;0;5;2;6
1480357160.39;22;32;79;105;63;25;49;93;35;39;58;62;110;21;24;96;68;0;6;3;7;6;5;5;5;3;6;4;0;5;0;5;2;6
1480357160.39;22;32;56;94;43;11;34;52;13;43;59;63;87;21;-2;83;60;0;6;3;7;6;5;5;5;3;6;4;0;5;0;5;2;6
1480357160.4;22;25;46;96;26;-3;16;20;12;32;38;63;74;21;-5;83;40;0;6;3;7;6;5;5;5;3;6;4;0;5;0;5;2;6
1480357160.41;22;8;35;106;28;-5;11;22;27;11;20;63;85;21;7;98;24;0;6;3;7;6;5;5;5;3;6;4;0;5;0;5;2;6
1480357160.41;22;-6;22;111;36;-3;20;21;34;11;26;63;96;21;14;108;20;0;6;3;7;6;5;5;5;3;6;4;0;5;0;5;2;6
1480357160.42;22;-6;22;111;36;-3;20;21;34;11;26;63;96;21;14;108;20;0;6;3;7;6;5;5;5;3;6;4;0;5;0;5;2;6
1480357160.43;22;-2;32;108;48;0;37;22;34;29;34;63;110;21;24;104;24;0;6;3;7;6;5;5;5;3;6;4;0;5;0;5;2;6
1480357160.43;22;10;36;100;61;0;46;42;34;32;35;63;122;22;28;88;30;0;6;3;7;6;5;5;4;3;6;4;0;5;0;5;2;6
1480357160.44;22;22;47;105;70;0;60;60;45;25;46;63;124;21;24;98;40;0;6;3;6;6;5;5;4;3;6;4;0;5;0;5;2;6
1480357160.45;22;30;63;117;85;9;82;76;61;29;61;63;130;21;32;117;54;0;6;3;6;6;5;5;4;3;6;4;0;5;0;5;2;6
1480357160.45;22;34;67;105;92;9;81;94;57;31;62;63;136;21;37;103;50;0;6;3;6;6;5;5;4;3;6;4;0;5;0;5;2;6
1480357160.46;22;27;62;89;69;-1;53;87;34;20;50;63;122;21;28;93;33;0;6;3;6;6;5;5;4;3;6;4;0;5;0;5;2;6
1480357160.47;22;27;62;89;69;-1;53;87;34;20;50;63;122;21;28;93;33;0;6;3;6;6;5;5;4;3;6;4;0;5;0;5;2;6
1480357160.47;22;9;33;91;41;-4;28;80;23;7;31;63;98;21;20;107;25;0;6;3;6;6;5;5;4;3;6;4;0;5;0;5;2;6
1480357160.48;22;6;24;91;29;-4;25;86;27;4;31;63;87;21;21;108;26;0;6;3;6;6;5;5;4;3;6;4;0;5;0;5;2;6
1480357160.49;22;13;32;87;28;-4;31;71;29;11;44;63;95;21;16;92;28;0;6;3;6;6;5;5;4;3;6;4;0;5;0;5;2;6
1480357160.49;22;4;26;83;31;-10;27;32;24;6;31;63;97;21;8;93;28;0;6;3;6;6;5;5;4;3;6;4;0;5;0;5;2;6
1480357160.5;22;-11;18;80;22;-27;14;-1;18;-9;10;63;83;21;6;99;16;0;6;3;6;6;5;5;4;3;6;4;0;5;0;5;2;6
1480357160.51;22;-3;10;84;6;-34;12;-10;24;-5;17;63;83;21;10;94;12;0;6;3;6;6;5;5;4;3;6;4;0;5;0;5;2;6
1480357160.52;22;-3;10;84;6;-34;12;-10;24;-5;17;63;83;21;10;94;12;0;6;3;6;6;5;5;4;3;6;4;0;5;0;5;2;6
1480357160.52;22;18;23;87;9;-25;18;6;33;12;34;63;91;21;13;96;27;0;6;3;6;6;5;5;4;3;6;4;0;5;0;5;2;6
1480357160.53;22;26;30;73;17;-27;10;20;23;12;26;63;76;21;6;97;33;0;6;3;6;6;5;5;4;3;6;4;0;5;0;5;2;6
1480357160.54;22;21;26;60;7;-27;-1;19;11;12;15;81;67;21;-2;93;29;0;6;3;6;6;5;5;4;3;6;4;3;5;0;5;2;6
1480357160.54;22;25;45;72;4;-8;7;35;21;24;29;82;77;21;-5;92;40;0;6;3;6;6;5;5;4;3;6;4;5;5;0;5;2;6
1480357160.55;23;35;46;89;20;1;21;63;29;31;38;83;82;21;-4;91;53;0;6;3;6;6;5;5;4;3;6;4;4;5;0;5;2;6
1480357160.56;23;32;46;88;40;-2;31;67;29;29;45;84;83;21;-2;100;53;0;6;3;6;6;5;5;4;3;6;4;6;5;0;5;2;6
1480357160.56;23;30;59;87;49;-7;39;62;33;25;60;85;95;21;4;112;50;0;6;3;6;6;5;5;4;3;6;4;3;5;0;5;2;6
1480357160.57;23;30;59;87;49;-7;39;62;33;25;60;85;95;21;4;112;50;0;6;3;6;6;5;5;4;3;6;4;3;5;0;5;2;6
1480357160.58;23;30;58;97;43;-15;36;70;32;23;54;86;99;21;10;107;41;0;6;3;6;6;5;5;4;3;6;4;5;5;0;5;2;6
1480357160.58;23;20;45;95;22;-26;22;82;26;14;34;87;76;21;3;85;26;0;6;3;6;6;5;5;4;3;6;4;4;5;0;5;2;6
1480357160.59;23;19;26;89;13;-40;20;91;32;9;34;88;66;21;3;67;31;0;6;3;6;6;5;5;4;3;6;4;6;5;0;5;2;6
1480357160.6;23;25;25;88;15;-54;27;95;40;9;47;89;81;21;7;54;41;0;6;3;6;6;5;5;4;3;6;4;3;5;0;5;2;6
1480357160.61;23;20;14;89;5;-59;22;90;32;7;39;90;75;21;2;35;31;0;6;3;6;6;5;5;4;3;6;4;5;5;0;5;2;6
1480357160.61;23;25;1;92;9;-49;18;70;27;5;31;91;67;21;0;25;37;0;6;3;6;6;5;5;4;3;6;4;4;5;0;5;2;6
1480357160.62;23;25;1;92;9;-49;18;70;27;5;31;91;67;21;0;25;37;0;6;3;6;6;5;5;4;3;6;4;4;5;0;5;2;6
1480357160.62;23;31;14;92;25;-46;27;37;30;0;39;92;77;22;7;36;55;0;6;3;6;6;5;5;4;3;6;4;6;5;0;5;2;6
1480357160.63;23;11;3;90;16;-59;29;14;30;-3;36;93;78;21;5;27;43;0;6;3;6;6;5;5;4;3;6;4;3;5;0;5;2;6
1480357160.64;23;-5;-15;90;7;-67;24;11;30;2;30;94;76;21;1;3;28;0;6;3;6;6;5;5;4;3;6;4;5;5;0;5;2;6
1480357160.64;23;14;2;93;27;-59;29;21;33;13;44;95;90;21;5;12;49;0;6;3;6;6;5;5;4;3;6;4;4;5;0;5;2;6
1480357160.65;23;36;17;102;41;-53;35;42;31;12;55;96;93;21;7;29;72;0;6;3;6;6;5;5;4;3;6;4;6;5;0;5;2;6
1480357160.66;23;31;11;108;23;-65;31;55;29;0;45;97;73;21;0;23;55;0;6;3;6;6;5;5;4;3;6;4;3;5;0;5;2;6
1480357160.67;23;13;-12;98;8;-70;25;57;20;1;28;98;66;21;-3;21;34;0;6;3;6;6;5;5;4;3;6;4;5;5;0;5;2;6
1480357160.67;23;13;-12;98;8;-70;25;57;20;1;28;98;66;21;-3;21;34;0;6;3;6;6;5;5;4;3;6;4;5;5;0;5;2;6
1480357160.68;23;1;-21;88;3;-64;26;59;19;4;23;99;69;21;0;28;37;0;6;3;6;6;5;5;4;3;6;4;4;5;0;5;2;6
1480357160.69;22;8;-15;85;1;-71;21;57;22;0;24;100;61;21;-2;26;39;0;6;3;6;6;5;5;4;3;6;4;6;5;0;5;2;6
1480357160.69;22;28;-23;84;-2;-74;7;60;10;0;25;101;49;21;-8;22;35;0;6;3;6;6;5;5;4;3;6;4;3;5;0;5;2;6
1480357160.7;22;36;-10;83;-1;-65;12;68;6;5;24;102;50;21;-8;28;44;0;6;3;6;6;5;5;4;3;6;4;5;5;0;5;2;6
1480357160.71;23;26;0;90;6;-60;28;58;26;9;25;103;65;21;-1;32;52;0;6;3;6;6;5;5;4;3;6;4;4;5;0;5;2;6
1480357160.71;23;7;-10;91;10;-67;25;21;34;-3;28;104;68;21;4;32;34;0;6;3;6;6;5;5;4;3;6;4;6;5;0;5;2;6
1480357160.72;23;7;-10;91;10;-67;25;21;34;-3;28;104;68;21;4;32;34;0;6;3;6;6;5;5;4;3;6;4;6;5;0;5;2;6
1480357160.73;22;-3;-11;84;7;-71;19;-6;23;-14;29;105;64;21;15;30;22;0;6;3;6;6;5;5;4;3;6;4;3;5;0;5;2;6
1480357160.73;22;6;-16;87;11;-58;26;-2;29;-3;24;106;65;21;26;32;41;0;6;3;6;6;5;5;4;3;6;4;5;5;0;5;2;6
1480357160.74;23;19;-15;89;11;-41;28;12;29;13;29;107;61;21;16;33;56;0;6;3;6;6;5;5;4;3;6;4;4;5;0;5;2;6
1480357160.75;22;16;-13;84;11;-28;35;31;7;22;40;108;60;21;-1;29;60;0;6;3;6;6;5;5;4;3;6;4;6;5;0;5;2;6
1480357160.75;22;3;-23;89;16;-29;40;52;4;26;34;109;58;21;-4;27;54;0;6;3;6;6;5;5;4;3;6;4;3;5;0;5;2;6
1480357160.76;22;3;-23;89;16;-29;40;52;4;26;34;109;58;21;-4;27;54;0;6;3;6;6;5;5;4;3;6;4;3;5;0;5;2;6
1480357160.77;22;-18;-38;88;3;-49;24;56;19;2;19;110;52;21;-8;30;35;0;6;3;6;6;5;5;4;3;6;4;5;5;0;5;2;6
1480357160.77;22;-18;-43;75;-3;-62;18;54;27;-18;22;111;57;22;-1;34;26;0;6;3;6;6;5;5;4;3;6;4;4;5;0;5;2;6
1480357160.78;22;-1;-25;69;14;-62;28;57;29;-11;37;112;64;21;12;29;31;0;6;3;6;6;5;5;4;3;6;4;6;5;0;5;2;6
1480357160.79;22;-7;-36;70;15;-61;24;59;27;-7;31;113;57;21;9;25;33;0;6;3;6;6;5;5;4;3;6;4;3;5;0;5;2;6
1480357160.79;22;-15;-63;77;2;-63;11;66;16;-12;13;114;52;21;2;32;30;0;6;3;6;6;5;5;4;3;6;4;5;5;0;5;2;6
1480357160.8;22;-16;-56;74;-12;-75;-2;52;-1;-21;1;115;36;21;-11;35;22;0;6;3;6;6;5;5;4;3;6;4;4;5;0;5;2;6
1480357160.81;22;-16;-56;74;-12;-75;-2;52;-1;-21;1;115;36;21;-11;35;22;0;6;3;6;6;5;5;4;3;6;4;4;5;0;5;2;6
1480357160.81;22;-21;-46;64;-18;-88;-4;11;-4;-26;-6;116;24;21;-18;28;20;0;6;3;6;6;5;5;4;3;6;4;6;5;0;5;2;6
1480357160.82;22;-18;-29;68;-11;-80;9;-12;8;-24;2;117;41;21;2;34;27;0;6;3;6;6;5;5;4;3;6;4;3;5;0;5;2;6
1480357160.83;22;-6;-18;74;6;-61;13;-1;12;-20;13;118;50;21;18;48;30;0;6;3;6;6;5;5;4;3;6;4;5;5;0;5;2;6
1480357160.84;22;-7;-38;67;3;-60;3;9;1;-16;4;119;40;21;3;44;23;0;6;3;6;6;5;5;4;3;6;4;4;5;0;5;2;6
1480357160.84;22;-12;-50;68;-14;-64;-3;20;-3;-12;-1;120;39;21;-9;42;19;0;6;3;6;6;5;5;4;3;6;4;6;5;0;5;2;6
1480357160.85;22;-5;-49;89;-6;-57;3;44;6;2;7;121;46;21;7;59;21;0;6;3;6;6;5;5;4;3;6;4;3;5;0;5;2;6
1480357160.86;22;-1;-32;92;8;-47;18;59;18;8;12;122;54;21;20;73;28;0;6;3;6;6;5;5;4;3;6;4;5;5;0;5;2;6
1480357160.86;22;-1;-32;92;8;-47;18;59;18;8;12;122;54;21;20;73;28;0;6;3;6;6;5;5;4;3;6;4;5;5;0;5;2;6
1480357160.87;22;6;-20;80;8;-38;26;53;29;10;18;123;61;21;24;67;40;0;6;3;6;6;5;5;4;3;6;4;4;5;0;5;2;6
1480357160.88;22;9;-27;85;9;-26;13;35;34;17;27;124;49;21;25;60;43;0;6;3;6;6;5;5;4;3;6;4;6;5;0;5;2;6
1480357160.88;22;1;-28;85;1;-30;-4;9;23;21;19;125;28;21;16;62;33;0;6;3;6;6;5;5;4;3;6;4;3;5;0;5;2;6
1480357160.89;22;-1;-43;67;-19;-51;-6;-17;2;2;-5;126;26;21;-1;56;29;0;6;3;6;6;5;5;4;3;6;4;5;5;0;5;2;6
1480357160.9;22;-4;-47;64;-18;-57;-4;-15;0;-13;-4;127;27;21;-8;49;29;0;6;3;6;6;5;5;4;3;6;4;4;5;0;5;2;6
1480357160.9;22;-1;-18;86;-3;-36;6;22;20;11;26;244;34;21;9;58;32;0;6;3;6;6;5;5;4;3;6;4;6;5;0;5;2;6
1480357160.91;22;-1;-18;86;-3;-36;6;22;20;11;26;244;34;21;9;58;32;0;6;3;6;6;5;5;4;3;6;4;6;5;0;5;2;6
1480357160.91;22;16;-2;98;6;-23;25;43;36;36;42;244;58;21;32;64;49;0;6;3;6;6;5;5;4;3;6;4;6;5;0;5;2;6
1480357160.92;22;19;-7;89;14;-30;29;39;34;21;37;244;59;21;26;59;55;0;6;3;6;6;5;5;4;3;6;4;6;5;0;5;2;6
1480357160.93;22;3;-24;84;11;-30;12;27;22;6;28;244;40;21;5;59;37;0;6;3;6;6;5;5;4;3;6;4;6;5;0;5;2;6
1480357160.94;22;-3;-28;86;3;-25;3;9;5;8;16;244;39;21;1;57;25;0;6;3;6;6;5;5;4;3;6;4;6;5;0;5;2;6
1480357160.94;22;-3;-27;76;-2;-29;0;-7;0;8;4;244;44;21;6;51;24;0;6;3;6;6;5;5;5;3;6;4;6;5;0;5;2;6
1480357160.95;22;-3;-27;76;-2;-29;0;-7;0;8;4;244;44;21;6;51;24;0;6;3;6;6;5;5;5;3;6;4;6;5;0;5;2;6
1480357160.95;23;-5;-37;67;-1;-22;-3;1;12;16;7;244;48;21;5;53;27;0;6;3;6;6;5;5;5;3;6;4;6;5;0;5;2;6
1480357160.96;23;5;-14;76;16;-5;13;2;30;24;35;244;63;21;18;59;34;0;6;3;6;6;5;5;5;3;6;4;6;5;0;5;2;6
1480357160.97;23;16;9;93;36;-5;31;-22;44;16;51;244;72;21;37;63;39;0;6;3;6;6;5;5;5;3;6;4;6;5;0;5;2;6
1480357160.98;22;9;-6;94;15;-26;13;-34;29;7;35;244;59;21;29;60;32;0;6;3;6;6;5;5;5;3;6;4;6;5;0;5;2;6
1480357160.98;23;0;-15;88;-16;-41;-15;-24;6;9;18;244;46;21;16;66;25;0;6;3;6;6;5;5;5;3;6;4;6;5;0;5;2;6
1480357160.99;23;8;-10;94;-3;-37;-3;-6;17;8;22;244;57;21;24;80;29;0;6;3;6;6;5;5;5;3;6;4;6;5;0;5;2;6
1480357161.0;23;8;-10;94;-3;-37;-3;-6;17;8;22;244;57;21;24;80;29;0;6;3;6;6;5;5;5;3;6;4;6;5;0;5;2;6
1480357161.0;23;12;3;89;22;-38;15;1;39;-1;29;244;70;21;34;77;31;0;6;3;6;6;5;5;5;3;6;4;6;5;0;5;2;6
1480357161.01;23;2;-3;67;24;-48;7;0;36;-4;21;244;67;21;34;60;29;0;6;3;6;6;5;5;5;3;6;4;6;5;0;5;2;6
1480357161.02;23;-3;-15;67;11;-45;0;0;23;-3;17;244;61;21;16;56;30;0;6;3;6;6;5;5;5;3;6;4;6;5;0;5;2;6
1480357161.02;23;0;-11;73;1;-43;-4;-15;13;-1;25;244;50;22;-3;59;28;0;6;3;6;6;5;5;5;3;6;4;6;5;0;5;2;6
1480357161.03;23;0;-21;69;-3;-42;-17;-33;5;0;15;244;41;22;9;58;20;0;6;3;6;6;5;5;5;3;6;4;6;5;0;5;2;6
1480357161.04;23;-4;-19;82;-4;-27;-18;-26;6;7;7;16;47;21;32;64;18;0;6;3;6;6;5;5;5;3;6;4;0;5;0;5;2;6
1480357161.05;23;-6;-11;94;-3;-10;-7;-5;6;23;14;17;55;21;27;69;25;0;6;3;6;6;5;5;5;3;6;4;0;5;0;5;2;6
1480357161.05;23;-6;-11;94;-3;-10;-7;-5;6;23;14;17;55;21;27;69;25;0;6;3;6;6;5;5;5;3;6;4;0;5;0;5;2;6
1480357161.06;23;-5;-13;76;6;-6;-3;-1;2;28;20;18;51;21;16;62;31;0;6;3;6;6;5;5;5;3;6;4;0;5;0;5;2;6
1480357161.06;23;9;3;68;19;-5;9;3;10;30;28;19;51;21;24;57;43;0;6;3;6;6;5;5;5;3;6;4;0;5;0;5;2;6
1480357161.07;23;36;19;95;35;13;43;29;16;49;62;20;68;21;35;62;71;0;6;3;6;6;5;5;5;3;6;4;0;5;0;5;2;6
1480357161.08;23;41;37;90;48;39;65;33;7;65;109;21;65;21;28;68;99;0;6;3;6;6;5;5;5;3;6;4;0;5;0;5;2;6
1480357161.09;23;30;43;61;53;52;84;-8;-7;57;153;22;42;21;8;62;124;0;6;3;6;6;5;5;5;3;6;4;0;5;0;5;2;6
1480357161.09;23;43;50;72;69;53;120;-45;0;62;209;23;43;21;14;61;166;0;6;3;6;6;5;5;5;3;6;4;0;5;0;5;2;6
1480357161.1;23;43;50;72;69;53;120;-45;0;62;209;23;43;21;14;61;166;0;6;3;6;6;5;5;5;3;6;4;0;5;0;5;2;6
1480357161.11;23;81;91;86;105;87;168;-40;19;88;289;24;67;21;35;70;229;0;6;3;6;6;5;5;5;3;6;4;0;5;0;5;2;6
1480357161.11;23;99;116;67;135;126;209;-25;17;105;355;25;77;21;28;67;279;0;6;3;6;6;5;5;5;3;6;4;0;5;0;5;2;6
1480357161.12;22;91;115;50;133;116;206;-35;-19;107;374;26;50;21;-1;57;288;0;6;3;6;6;5;5;5;3;6;4;0;5;0;5;2;6
1480357161.13;22;92;110;51;112;111;186;-27;-59;114;374;27;10;21;-20;60;293;0;6;3;6;6;5;5;5;3;6;4;0;5;0;5;2;6
1480357161.13;22;101;111;39;110;133;185;-1;-65;125;380;28;9;21;-32;59;304;0;6;3;6;6;5;5;5;3;6;4;0;5;0;5;2;6
1480357161.14;22;101;111;39;110;133;185;-1;-65;125;380;28;9;21;-32;59;304;0;6;3;6;6;5;5;5;3;6;4;0;5;0;5;2;6
1480357161.14;22;97;122;23;117;121;189;-7;-47;120;383;29;28;21;-36;53;297;0;6;3;6;6;5;5;5;3;6;4;0;5;0;5;2;6
1480357161.15;22;90;109;24;106;99;180;-18;-39;101;367;30;12;21;-20;54;281;0;6;3;6;6;5;5;5;3;6;4;0;5;0;5;2;6
1480357161.16;22;91;99;34;99;92;173;-2;-33;92;356;31;10;21;-1;63;267;0;6;3;6;6;5;5;5;3;6;4;0;5;0;5;2;6
1480357161.17;22;89;102;43;104;74;164;-1;-23;90;339;32;57;21;3;77;248;0;6;3;6;6;5;5;5;3;6;4;0;5;0;5;2;6
1480357161.17;22;74;88;41;101;58;143;-40;-27;76;290;33;72;21;-2;72;219;0;6;3;6;6;5;5;5;3;6;4;0;5;0;5;2;6
1480357161.18;22;60;86;45;84;50;130;-67;-24;64;252;34;51;21;5;67;193;0;6;3;6;6;5;5;5;3;6;4;0;5;0;5;2;6
1480357161.19;22;60;76;54;77;38;117;-60;-1;64;228;35;62;21;18;81;174;0;6;3;6;6;5;5;5;3;6;4;0;5;0;5;2;6
1480357161.19;22;60;76;54;77;38;117;-60;-1;64;228;35;62;21;18;81;174;0;6;3;6;6;5;5;5;3;6;4;0;5;0;5;2;6
1480357161.2;22;63;60;51;84;26;98;-52;5;62;192;36;76;21;29;81;158;0;6;3;6;6;5;5;5;3;6;4;0;5;0;5;2;6
1480357161.21;22;53;60;48;75;11;75;-59;1;54;153;37;52;21;31;69;132;0;6;3;6;6;5;5;5;3;6;4;0;5;0;5;2;6
1480357161.21;22;35;37;58;50;-4;51;-58;-2;51;116;38;34;21;14;67;101;0;6;3;6;6;5;5;5;3;6;4;0;5;0;5;2;6
1480357161.22;22;15;6;63;30;-2;28;-39;-23;44;79;39;31;21;-6;65;76;0;6;3;6;6;5;5;5;3;6;4;0;5;0;5;2;6
1480357161.23;22;1;-7;63;20;0;10;-28;-44;39;45;40;29;21;-5;58;56;0;6;3;6;6;5;5;5;3;6;4;0;5;0;5;2;6
1480357161.23;22;-1;-2;61;5;-17;-5;-24;-40;36;27;41;29;21;1;63;44;0;6;3;6;6;5;5;5;3;6;4;0;5;0;5;2;6
1480357161.24;22;-1;-2;61;5;-17;-5;-24;-40;36;27;41;29;21;1;63;44;0;6;3;6;6;5;5;5;3;6;4;0;5;0;5;2;6
1480357161.25;22;1;-2;55;-17;-35;-28;-18;-33;22;15;42;20;21;-2;78;34;0;6;3;6;6;5;5;5;3;6;4;0;5;0;5;2;6
1480357161.26;22;-10;-17;58;-22;-46;-43;-16;-26;8;-7;43;15;21;13;86;14;0;6;3;6;6;5;5;5;3;6;4;0;5;0;5;2;6
1480357161.26;22;-33;-22;56;-36;-68;-60;-22;-22;-11;-33;44;18;21;23;79;-13;0;6;3;6;6;5;5;5;3;6;4;0;5;0;5;2;6
1480357161.27;22;-41;-35;39;-60;-87;-81;-25;-32;-32;-47;45;6;21;6;65;-28;0;6;3;6;6;5;5;5;3;6;4;0;5;0;5;2;6
1480357161.28;22;-24;-34;27;-55;-79;-81;-21;-40;-22;-46;46;-7;21;-10;60;-18;0;6;3;6;6;5;5;5;3;6;4;0;5;0;5;2;6
1480357161.28;22;-6;-1;35;-36;-62;-68;-31;-36;4;-39;47;9;21;0;66;-2;0;6;3;6;6;5;5;5;3;6;4;0;5;0;5;2;6
1480357161.29;22;-10;7;49;-27;-53;-58;-48;-19;18;-37;48;35;21;19;76;6;0;6;3;6;6;5;5;5;3;6;4;0;5;0;5;2;6
1480357161.3;22;-29;-2;51;-14;-52;-43;-52;-4;12;-36;49;43;21;22;83;-2;0;6;3;6;6;5;5;5;3;6;4;0;5;0;5;2;6
1480357161.3;22;-29;-2;51;-14;-52;-43;-52;-4;12;-36;49;43;21;22;83;-2;0;6;3;6;6;5;5;5;3;6;4;0;5;0;5;2;6
1480357161.31;22;-36;-11;52;0;-53;-31;-44;1;7;-39;50;43;21;22;85;-15;0;6;3;6;6;5;5;5;3;6;4;0;5;0;5;2;6
1480357161.32;22;-28;-14;61;-1;-45;-34;-26;4;20;-47;51;38;21;31;92;-12;0;6;3;6;6;5;5;5;3;6;4;0;5;0;5;2;6
1480357161.32;22;-28;-6;65;-13;-43;-48;-6;1;22;-50;52;27;21;30;94;-9;0;6;3;6;6;5;5;5;3;6;4;0;5;0;5;2;6
1480357161.33;22;-37;-18;60;-19;-47;-47;5;-6;4;-51;53;29;21;30;90;-15;0;6;3;6;6;5;5;5;3;6;4;0;5;0;5;2;6
1480357161.34;22;-36;-15;56;-8;-50;-32;6;13;0;-46;54;38;21;49;96;-12;0;6;3;6;6;5;5;5;3;6;4;0;5;0;5;2;6
1480357161.34;22;-36;-15;56;-8;-50;-32;6;13;0;-46;54;38;21;49;96;-12;0;6;3;6;6;5;5;5;3;6;4;0;5;0;5;2;6
1480357161.35;22;-29;-4;58;0;-50;-37;-3;24;11;-46;55;32;21;53;99;-3;0;6;3;6;6;5;5;5;3;6;4;0;5;0;5;2;6
1480357161.36;22;-25;-10;59;-17;-59;-63;-24;0;7;-53;56;21;21;44;96;-11;0;6;3;6;6;5;5;5;3;6;4;0;5;0;5;2;6
1480357161.37;22;-18;-7;60;-27;-65;-66;-34;6;0;-56;57;23;21;57;100;-20;0;6;3;6;6;5;5;5;3;6;4;0;5;0;5;2;6
1480357161.37;22;-23;-18;61;-23;-67;-58;-32;33;-4;-67;58;21;21;61;98;-24;0;6;3;6;6;5;5;5;3;6;4;0;5;0;5;2;6
1480357161.38;22;-38;-28;63;-32;-76;-66;-32;14;-16;-83;59;2;21;37;93;-38;0;6;3;6;6;5;5;5;3;6;4;0;5;0;5;2;6
1480357161.39;22;-38;-14;62;-39;-73;-72;-15;-9;-18;-85;60;-1;21;27;100;-40;0;6;3;6;6;5;5;5;3;6;4;0;5;0;5;2;6
1480357161.39;22;-28;-15;53;-32;-69;-68;12;2;-9;-79;61;6;21;32;93;-28;0;6;3;6;6;5;5;5;3;6;4;0;5;0;5;2;6
1480357161.4;22;-28;-15;53;-32;-69;-68;12;2;-9;-79;61;6;21;32;93;-28;0;6;3;6;6;5;5;5;3;6;4;0;5;0;5;2;6
1480357161.4;22;-21;-11;40;-28;-68;-57;1;-3;-5;-69;62;-6;21;21;75;-17;0;6;3;6;6;5;5;5;3;6;4;0;5;0;5;2;6
1480357161.41;22;-4;18;44;-2;-46;-31;-28;-7;5;-42;63;7;21;29;81;5;0;6;3;6;6;5;5;5;3;6;4;0;5;0;5;2;6
1480357161.42;22;13;42;57;30;-29;-16;-39;24;14;-19;63;46;21;61;84;17;0;6;3;6;6;5;5;5;3;6;4;0;5;0;5;2;6
1480357161.43;22;-3;19;59;15;-29;-32;-38;33;10;-37;63;50;21;61;66;6;0;6;3;6;6;5;5;5;3;6;4;0;5;0;5;2;6
1480357161.43;22;-29;-23;59;-19;-25;-51;-27;8;9;-63;63;28;21;36;45;-2;0;6;3;6;6;5;5;5;3;6;4;0;5;0;5;2;6
1480357161.44;23;-33;-25;63;-32;-27;-61;-13;-2;-2;-59;63;11;21;27;33;-12;0;6;3;6;6;5;5;5;3;6;4;0;5;0;5;2;6
1480357161.45;23;-33;-25;63;-32;-27;-61;-13;-2;-2;-59;63;11;21;27;33;-12;0;6;3;6;6;5;5;5;3;6;4;0;5;0;5;2;6
1480357161.45;22;-35;-34;65;-39;-43;-62;9;7;-18;-60;63;1;21;31;20;-28;0;6;3;6;6;5;5;4;3;6;4;0;5;0;5;2;6
1480357161.46;23;-54;-60;60;-49;-51;-65;22;0;-20;-85;63;-3;21;19;2;-37;0;6;3;6;6;5;5;4;3;6;4;0;5;0;5;2;6
1480357161.47;23;-70;-61;55;-46;-39;-67;13;-4;-12;-90;63;9;22;15;-9;-35;0;6;3;6;6;5;5;4;3;6;4;0;5;0;5;2;6
1480357161.47;23;-43;-46;62;-12;-16;-43;18;21;10;-55;63;33;21;40;-7;-9;0;6;3;6;6;5;5;4;3;6;4;0;5;0;5;2;6
1480357161.48;23;-8;-23;78;12;-1;-7;19;38;23;-25;63;52;21;65;5;18;0;6;3;6;6;5;5;4;3;6;4;0;5;0;5;2;6
1480357161.49;23;-11;-21;85;14;4;-1;-15;38;17;-24;63;55;21;68;4;17;0;6;3;6;6;5;5;4;3;6;4;0;5;0;5;2;6
1480357161.49;23;-11;-21;85;14;4;-1;-15;38;17;-24;63;55;21;68;4;17;0;6;3;6;6;5;5;4;3;6;4;0;5;0;5;2;6
1480357161.5;23;-34;-32;88;8;0;-15;-40;30;3;-31;63;42;21;55;0;4;0;6;3;6;6;5;5;4;3;6;4;0;5;0;5;2;6
1480357161.51;22;-46;-38;86;-5;-17;-32;-46;13;0;-45;63;18;21;29;0;-4;0;6;3;6;6;5;5;4;3;6;4;0;5;0;5;2;6
1480357161.51;23;-37;-51;72;-23;-35;-50;-59;-4;1;-63;63;-4;21;11;-1;-12;0;6;3;6;6;5;5;4;3;6;4;0;5;0;5;2;6
1480357161.52;23;-25;-49;57;-40;-38;-69;-60;-10;-6;-62;63;-14;21;11;-1;-10;0;6;3;6;6;5;5;4;3;6;4;0;5;0;5;2;6
1480357161.53;22;-22;-50;58;-43;-34;-70;-29;1;-3;-63;63;-8;21;24;-2;-1;0;6;3;6;6;5;5;4;3;6;4;0;5;0;5;2;6
1480357161.53;22;-22;-50;58;-43;-34;-70;-29;1;-3;-63;63;-8;21;24;-2;-1;0;6;3;6;6;5;5;4;3;6;4;0;5;0;5;2;6
1480357161.54;23;-31;-58;65;-22;-30;-47;-4;19;7;-67;63;13;21;41;0;-5;0;6;3;6;6;5;5;4;3;6;4;0;5;0;5;2;6
1480357161.55;23;-44;-47;60;-1;-32;-28;3;25;7;-51;63;25;21;50;4;-8;0;6;3;6;6;5;5;4;3;6;4;0;5;0;5;2;6
1480357161.55;23;-31;-33;62;1;-48;-27;5;18;0;-36;81;22;21;49;11;-2;0;6;3;6;6;5;5;4;3;6;4;3;5;0;5;2;6
1480357161.56;22;-2;-6;77;11;-58;-17;11;24;-2;-27;82;25;21;55;23;3;0;6;3;6;6;5;5;4;3;6;4;5;5;0;5;2;6
1480357161.57;23;5;0;78;29;-59;-5;2;43;-6;-20;83;41;21;73;36;5;0;6;3;6;6;5;5;4;3;6;4;4;5;0;5;2;6
1480357161.57;23;5;0;78;29;-59;-5;2;43;-6;-20;83;41;21;73;36;5;0;6;3;6;6;5;5;4;3;6;4;4;5;0;5;2;6
1480357161.58;22;-15;-30;70;15;-64;-19;-26;34;-11;-33;84;44;21;68;26;1;0;6;3;6;6;5;5;4;3;6;4;6;5;0;5;2;6
1480357161.59;22;-31;-45;60;-9;-55;-35;-40;5;-6;-50;85;22;21;40;1;-7;0;6;3;6;6;5;5;4;3;6;4;3;5;0;5;2;6
1480357161.59;22;-29;-51;43;-12;-28;-38;-42;-9;4;-47;86;0;21;25;-11;2;0;6;3;6;6;5;5;4;3;6;4;5;5;0;5;2;6
1480357161.6;23;-6;-26;35;5;-9;-28;-49;-7;15;-29;87;5;21;25;-6;31;0;6;3;6;6;5;5;4;3;6;4;4;5;0;5;2;6
1480357161.61;23;22;9;47;30;3;-4;-41;0;33;-8;88;20;21;29;-2;49;0;6;3;6;6;5;5;4;3;6;4;6;5;0;5;2;6
1480357161.61;23;13;-4;53;31;0;-5;-16;0;41;-5;89;11;22;31;-4;40;0;6;3;6;6;5;5;4;3;6;4;3;5;0;5;2;6
1480357161.62;22;-14;-35;49;2;-24;-34;-5;-2;19;-20;90;-6;22;27;-2;11;0;6;3;6;6;5;5;4;3;6;4;5;5;0;5;2;6
1480357161.63;22;-14;-35;49;2;-24;-34;-5;-2;19;-20;90;-6;22;27;-2;11;0;6;3;6;6;5;5;4;3;6;4;5;5;0;5;2;6
1480357161.63;22;-13;-43;57;-5;-26;-41;4;-1;3;-31;91;2;21;23;-2;8;0;6;3;6;6;5;5;4;3;6;4;4;5;0;5;2;6
1480357161.64;22;14;-1;63;20;-12;-14;21;24;19;-16;92;36;22;42;10;42;0;6;3;6;6;5;5;4;3;6;4;6;5;0;5;2;6
1480357161.65;22;26;34;62;40;-18;3;31;51;22;-2;93;64;22;68;29;53;0;6;3;6;6;5;5;4;3;6;4;3;5;0;5;2;6
1480357161.65;22;14;11;67;32;-30;-6;30;45;-1;-11;94;67;22;70;33;34;0;6;3;6;6;5;5;4;3;6;4;5;5;0;5;2;6
1480357161.66;23;-2;-14;68;7;-28;-29;29;27;-15;-26;95;49;22;53;26;18;0;6;3;6;6;5;5;4;3;6;4;4;5;0;5;2;6
1480357161.67;22;-2;-25;67;-5;-28;-33;32;12;-19;-38;96;29;21;39;27;9;0;6;3;6;6;5;5;4;3;6;4;6;5;0;5;2;6
1480357161.68;22;0;-19;66;6;-34;-17;6;2;-21;-36;97;16;21;29;29;4;0;6;3;6;6;5;5;4;3;6;4;3;5;0;5;2;6
1480357161.68;22;0;-19;66;6;-34;-17;6;2;-21;-36;97;16;21;29;29;4;0;6;3;6;6;5;5;4;3;6;4;3;5;0;5;2;6
1480357161.69;22;-2;2;63;20;-21;-6;-31;10;-13;-21;98;20;21;26;27;21;0;6;3;6;6;5;5;4;3;6;4;5;5;0;5;2;6
1480357161.7;22;1;12;71;42;7;15;-27;31;3;-12;99;49;21;44;30;36;0;6;3;6;6;5;5;4;3;6;4;4;5;0;5;2;6
1480357161.7;22;4;17;82;62;23;29;-5;36;15;-14;100;65;21;68;39;33;0;6;3;6;6;5;5;4;3;6;4;6;5;0;5;2;6
1480357161.71;22;-1;-3;74;43;19;8;-6;19;16;-25;101;40;21;58;45;32;0;6;3;6;6;5;5;4;3;6;4;3;5;0;5;2;6
1480357161.72;22;-7;-22;56;6;2;-25;-10;0;1;-34;102;9;21;29;40;25;0;6;3;6;6;5;5;4;3;6;4;5;5;0;5;2;6
1480357161.72;22;-3;-8;54;4;-13;-25;6;-10;-11;-36;103;10;21;17;29;20;0;6;3;6;6;5;5;4;3;6;4;4;5;0;5;2;6
1480357161.73;22;-3;-8;54;4;-13;-25;6;-10;-11;-36;103;10;21;17;29;20;0;6;3;6;6;5;5;4;3;6;4;4;5;0;5;2;6
1480357161.74;22;3;2;62;27;-16;-9;26;-3;-6;-34;104;23;21;31;24;24;0;6;3;6;6;5;5;4;3;6;4;6;5;0;5;2;6
1480357161.74;22;-3;3;62;25;-11;-12;32;19;-6;-29;105;24;21;48;36;22;0;6;3;6;6;5;5;4;3;6;4;3;5;0;5;2;6
1480357161.75;22;-6;-5;63;13;-10;-11;32;25;-12;-21;106;28;21;45;47;23;0;6;3;6;6;5;5;4;3;6;4;5;5;0;5;2;6
1480357161.76;22;9;1;65;16;-10;-2;42;15;-10;-11;107;31;21;38;40;29;0;6;3;6;6;5;5;4;3;6;4;4;5;0;5;2;6
1480357161.76;22;25;21;61;25;-14;1;59;18;-14;-10;108;34;21;47;40;29;0;6;3;6;6;5;5;4;3;6;4;6;5;0;5;2;6
1480357161.77;22;22;24;69;41;-11;6;59;37;-23;-5;109;55;21;66;56;29;0;6;3;6;6;5;5;4;3;6;4;3;5;0;5;2;6
1480357161.78;22;22;24;69;41;-11;6;59;37;-23;-5;109;55;21;66;56;29;0;6;3;6;6;5;5;4;3;6;4;3;5;0;5;2;6
1480357161.78;22;7;28;80;48;-10;14;32;40;-31;8;110;70;21;75;62;29;0;6;3;6;6;5;5;4;3;6;4;5;5;0;5;2;6
1480357161.79;22;-3;14;73;39;-16;13;-2;29;-30;-1;111;57;21;69;58;22;0;6;3;6;6;5;5;4;3;6;4;4;5;0;5;2;6
1480357161.8;23;-6;-3;70;40;-4;11;-1;34;-14;-9;112;52;21;64;59;24;0;6;3;6;6;5;5;4;3;6;4;6;5;0;5;2;6
1480357161.8;23;-1;3;76;46;18;10;22;28;2;2;113;54;21;57;55;29;0;6;3;6;6;5;5;4;3;6;4;3;5;0;5;2;6
1480357161.81;23;-2;-14;66;34;15;-1;29;8;3;-8;114;37;21;52;43;21;0;6;3;6;6;5;5;4;3;6;4;5;5;0;5;2;6
1480357161.82;23;-23;-23;52;21;-2;-11;32;5;-2;-25;115;26;21;50;36;7;0;6;3;6;6;5;5;4;3;6;4;4;5;0;5;2;6
1480357161.82;23;-23;-23;52;21;-2;-11;32;5;-2;-25;115;26;21;50;36;7;0;6;3;6;6;5;5;4;3;6;4;4;5;0;5;2;6
1480357161.83;23;-34;-12;53;19;0;-6;50;21;-7;-23;116;35;21;49;39;4;0;6;3;6;6;5;5;4;3;6;4;6;5;0;5;2;6
1480357161.84;23;-16;-6;69;20;4;0;71;27;-11;-23;117;38;21;49;49;18;0;6;3;6;6;5;5;4;3;6;4;3;5;0;5;2;6
1480357161.84;23;0;-4;73;14;0;-16;77;21;-6;-21;118;22;21;53;66;25;0;6;3;6;6;5;5;4;3;6;4;5;5;0;5;2;6
1480357161.85;22;-3;-5;72;9;-2;-30;73;24;-5;-16;119;11;22;60;72;18;0;6;3;6;6;5;5;4;3;6;4;4;5;0;5;2;6
1480357161.86;23;6;11;71;17;-4;-22;65;26;-18;-17;120;15;21;60;68;18;0;6;3;6;6;5;5;4;3;6;4;6;5;0;5;2;6
1480357161.86;23;6;11;71;17;-4;-22;65;26;-18;-17;120;15;21;60;68;18;0;6;3;6;6;5;5;4;3;6;4;6;5;0;5;2;6
1480357161.87;23;26;32;73;30;-13;-6;52;31;-12;-13;121;28;21;67;79;32;0;6;3;6;6;5;5;4;3;6;4;3;5;0;5;2;6
1480357161.88;23;36;39;80;32;-17;-1;28;36;7;1;122;36;21;72;82;49;0;6;3;6;6;5;5;4;3;6;4;5;5;0;5;2;6
1480357161.88;23;30;47;74;35;-17;8;-1;29;5;9;123;33;21;63;71;55;0;6;3;6;6;5;5;4;3;6;4;4;5;0;5;2;6
1480357161.89;23;33;46;66;56;-11;26;0;24;5;16;124;31;21;61;75;60;0;6;3;6;6;5;5;4;3;6;4;6;5;0;5;2;6
1480357161.9;23;55;52;79;60;0;30;24;23;30;33;125;31;21;65;90;68;0;6;3;6;6;5;5;4;3;6;4;3;5;0;5;2;6
1480357161.9;22;58;55;82;39;5;14;32;8;35;35;126;17;21;55;87;73;0;6;3;6;6;5;5;4;3;6;4;5;5;0;5;2;6
1480357161.91;22;58;55;82;39;5;14;32;8;35;35;126;17;21;55;87;73;0;6;3;6;6;5;5;4;3;6;4;5;5;0;5;2;6
1480357161.92;22;35;35;68;26;-2;-7;26;-6;18;13;127;8;21;43;68;59;0;6;3;6;6;5;5;4;3;6;4;4;5;0;5;2;6
1480357161.92;22;23;34;67;24;-11;-8;16;-1;14;6;244;19;21;52;63;48;0;6;3;6;6;5;5;4;3;6;4;6;5;0;5;2;6
1480357161.93;22;34;43;80;37;-2;7;11;10;23;18;244;34;21;59;71;58;0;6;3;6;6;5;5;4;3;6;4;6;5;0;5;2;6
1480357161.94;22;35;54;74;50;-4;10;12;10;20;23;244;31;21;40;68;65;0;6;3;6;6;5;5;4;3;6;4;6;5;0;5;2;6
1480357161.94;22;27;51;68;30;-25;-3;9;2;6;11;244;29;21;22;60;51;0;6;3;6;6;5;5;4;3;6;4;6;5;0;5;2;6
1480357161.95;22;26;31;80;11;-34;-9;7;13;3;-3;244;35;21;38;72;36;0;6;3;6;6;5;5;4;3;6;4;6;5;0;5;2;6
1480357161.96;22;26;31;80;11;-34;-9;7;13;3;-3;244;35;21;38;72;36;0;6;3;6;6;5;5;4;3;6;4;6;5;0;5;2;6
1480357161.96;22;27;45;91;36;-26;12;13;48;11;8;244;48;21;75;99;41;0;6;3;6;6;5;5;5;3;6;4;6;5;0;5;2;6
1480357161.97;22;28;60;95;74;-24;49;11;74;13;26;244;84;21;101;115;45;0;6;3;6;6;5;5;5;3;6;4;6;5;0;5;2;6
1480357161.98;22;29;54;93;81;-32;58;-7;69;3;22;244;101;21;104;120;30;0;6;3;6;6;5;5;5;3;6;4;6;5;0;5;2;6
1480357161.98;22;22;49;85;60;-36;32;-11;45;-5;9;244;64;21;85;108;25;0;6;3;6;6;5;5;5;3;6;4;6;5;0;7;2;6
1480357161.99;22;10;35;72;36;-30;5;-4;24;-1;-6;244;31;21;65;93;33;0;6;3;6;6;5;5;5;3;6;4;6;5;0;7;2;6
1480357162.0;22;4;31;58;22;-16;-3;3;23;3;-17;244;28;21;57;90;23;0;6;3;6;6;5;5;5;3;6;4;6;7;0;7;2;6
1480357162.01;22;4;31;58;22;-16;-3;3;23;3;-17;244;28;21;57;90;23;0;6;3;6;6;5;5;5;3;6;4;6;7;0;7;2;6
1480357162.01;22;16;35;63;29;3;-2;27;32;16;-5;244;36;21;61;90;22;0;6;3;6;6;5;5;5;3;6;4;6;7;0;7;2;6
1480357162.02;22;33;51;79;40;26;6;33;39;33;20;244;50;21;73;91;53;0;6;3;6;6;5;5;5;3;6;4;6;7;0;7;2;6
1480357162.03;22;36;59;79;29;26;-1;11;33;31;15;244;43;21;63;93;60;0;6;3;6;6;5;5;5;3;6;4;6;7;0;7;2;6
1480357162.03;23;31;33;64;3;3;-22;-4;13;21;-7;244;15;21;35;83;37;0;6;4;6;6;5;5;5;3;6;4;6;7;0;7;2;6
1480357162.04;22;31;31;60;-10;-5;-31;-5;11;27;0;244;11;21;35;89;34;0;6;4;6;6;5;5;5;3;6;4;6;7;0;7;2;6
1480357162.05;23;35;44;70;4;-5;-20;4;33;32;3;244;33;21;65;112;44;0;6;4;6;6;5;5;5;3;6;4;6;7;0;7;2;6
1480357162.06;23;27;38;65;6;-24;-23;2;35;7;-21;16;31;21;72;106;31;0;6;4;6;6;5;5;5;3;6;4;0;7;0;7;2;6
1480357162.06;23;27;38;65;6;-24;-23;2;35;7;-21;16;31;21;72;106;31;0;6;4;6;6;5;5;5;3;6;4;0;7;0;7;2;6
1480357162.07;22;19;37;51;-10;-49;-51;-23;22;-16;-26;17;11;21;61;93;14;0;6;4;6;6;5;5;5;3;6;4;0;7;0;7;2;6
1480357162.07;23;32;36;60;-9;-55;-53;-38;27;-3;-10;18;14;21;63;103;26;0;6;4;6;6;5;5;5;3;6;4;0;7;0;7;2;6
1480357162.08;23;27;32;74;1;-48;-32;-21;33;13;-13;19;30;21;64;107;33;0;6;4;6;6;5;5;5;3;6;4;0;7;0;7;2;6
1480357162.09;23;3;18;68;2;-39;-24;4;29;7;-23;20;33;21;62;96;19;0;6;4;6;6;5;5;5;3;6;4;0;7;0;7;2;6
1480357162.1;23;9;13;53;10;-27;-19;20;31;5;-10;21;31;21;66;94;14;0;6;4;6;6;5;5;5;3;6;4;0;7;0;7;2;6
1480357162.1;22;27;38;50;24;-13;-5;34;34;23;4;22;28;21;63;94;26;0;6;4;6;6;5;5;5;3;6;4;0;7;0;7;2;6
1480357162.11;22;27;38;50;24;-13;-5;34;34;23;4;22;28;21;63;94;26;0;6;4;6;6;5;5;5;3;6;4;0;7;0;7;2;6
1480357162.11;23;18;43;57;26;-11;3;48;25;40;2;23;13;21;49;89;30;0;6;4;6;6;5;5;5;3;6;4;0;7;0;7;2;6
1480357162.12;22;1;30;52;17;-30;-4;50;10;22;3;24;-3;21;35;91;20;0;6;4;6;6;5;5;5;3;6;4;0;7;0;7;2;6
1480357162.13;23;1;29;35;18;-33;-7;34;4;-5;9;25;-3;21;35;89;19;0;6;4;6;6;5;5;5;3;6;4;0;7;0;7;2;6
1480357162.13;22;18;50;35;37;-8;6;11;18;7;23;26;11;21;52;87;32;0;6;4;6;6;5;5;5;3;6;4;0;7;0;7;2;6
1480357162.14;22;48;91;50;63;6;33;-5;44;28;53;27;35;21;76;94;50;0;6;4;6;6;5;5;5;3;6;4;0;7;0;7;2;6
1480357162.15;23;70;103;56;78;3;49;-2;61;19;68;28;49;21;90;98;65;0;6;4;6;6;5;5;5;3;6;4;0;7;0;7;2;6
1480357162.15;23;70;103;56;78;3;49;-2;61;19;68;28;49;21;90;98;65;0;6;4;6;6;5;5;5;3;6;4;0;7;0;7;2;6
1480357162.16;22;60;81;55;61;-9;28;19;54;4;47;29;41;21;79;95;55;0;6;4;6;6;5;5;5;3;6;4;0;7;0;7;2;6
1480357162.17;23;21;42;47;23;-39;-5;33;33;-12;6;30;15;21;57;94;17;0;6;4;6;6;5;5;5;3;6;4;0;7;0;7;2;6
1480357162.17;23;0;27;34;15;-66;-12;36;24;-31;-13;31;4;22;53;92;-3;0;6;4;6;6;5;5;5;3;6;4;0;7;0;7;2;6
1480357162.18;23;14;54;41;27;-63;-2;56;28;-28;11;32;10;21;63;89;9;0;6;4;6;6;5;5;5;3;6;4;0;7;0;7;2;6
1480357162.19;23;14;44;61;17;-47;0;76;28;-21;18;33;8;21;55;100;11;0;6;4;6;6;5;5;5;3;6;4;0;7;0;7;2;6
1480357162.19;23;14;44;61;17;-47;0;76;28;-21;18;33;8;21;55;100;11;0;6;4;6;6;5;5;5;3;6;4;0;7;0;7;2;6
1480357162.2;22;-6;23;63;13;-43;2;68;28;-22;6;34;13;21;47;109;-2;0;6;4;6;6;5;5;5;3;6;4;0;7;0;7;2;6
1480357162.21;22;-8;33;54;30;-33;6;45;35;-11;7;35;27;21;56;103;0;0;6;4;6;6;5;5;5;3;6;4;0;7;0;7;2;6
1480357162.21;23;1;32;55;24;-6;1;36;33;9;7;36;17;21;59;91;14;0;6;4;6;6;5;5;5;3;6;4;0;7;0;7;2;6
1480357162.22;22;-3;29;43;3;13;-9;43;22;15;-1;37;-7;21;43;87;15;0;6;4;6;6;5;5;5;3;6;4;0;7;0;7;2;6
1480357162.23;22;-2;26;30;5;13;-18;54;20;18;-4;38;-1;21;36;90;9;0;6;4;6;6;5;5;5;3;6;4;0;7;0;7;2;6
1480357162.24;22;-1;18;36;5;3;-27;60;26;15;-15;39;11;21;39;91;5;0;6;4;6;6;5;5;5;3;6;4;0;7;0;7;2;6
1480357162.24;22;-1;18;36;5;3;-27;60;26;15;-15;39;11;21;39;91;5;0;6;4;6;6;5;5;5;3;6;4;0;7;0;7;2;6
1480357162.25;22;-18;10;46;-12;-4;-33;67;29;5;-26;40;0;21;36;91;0;0;6;4;6;6;5;5;5;3;6;4;0;7;0;7;2;6
1480357162.26;23;-23;13;54;-9;-1;-33;73;31;7;-17;41;5;21;47;92;2;0;6;4;6;6;5;5;5;3;6;4;0;7;0;7;2;6
1480357162.26;23;-4;33;57;-1;-3;-36;53;29;9;-12;42;18;21;55;96;6;0;6;4;6;6;5;5;5;3;6;4;0;7;0;7;2;6
1480357162.27;23;-4;25;53;-19;-14;-46;26;18;0;-29;43;7;21;39;93;3;0;6;4;6;6;5;5;5;3;6;4;0;7;0;7;2;6
1480357162.28;23;-19;12;49;-29;-19;-56;20;20;-6;-33;44;-4;21;40;91;-5;0;6;4;6;6;5;5;5;3;6;4;0;7;0;7;2;6
1480357162.28;23;-16;26;55;-17;-9;-55;30;27;1;-15;45;11;21;64;96;2;0;6;4;6;6;5;5;5;3;6;4;0;7;0;7;2;6
1480357162.29;23;-16;26;55;-17;-9;-55;30;27;1;-15;45;11;21;64;96;2;0;6;4;6;6;5;5;5;3;6;4;0;7;0;7;2;6
1480357162.3;23;3;35;64;-5;-3;-42;36;35;7;-6;46;31;21;72;84;22;0;6;4;6;6;5;5;5;3;6;4;0;7;0;7;2;6
1480357162.3;23;9;40;62;-7;-5;-23;31;51;3;1;47;32;21;63;65;27;0;6;4;6;6;5;5;5;3;6;4;0;7;0;7;2;6
1480357162.31;23;7;28;58;1;-6;-10;33;53;1;11;48;33;21;63;52;26;0;6;4;6;6;5;5;5;3;6;4;0;7;0;7;2;6
1480357162.32;23;2;8;59;24;0;4;58;47;3;18;49;35;21;64;30;28;0;6;4;6;6;5;5;5;3;6;4;0;7;0;7;2;6
1480357162.32;23;-18;5;61;32;2;16;66;42;-1;16;50;32;21;48;5;22;0;6;4;6;6;5;5;5;3;6;4;0;7;0;7;2;6
1480357162.33;23;-24;1;58;39;4;26;40;40;11;14;51;36;21;42;-5;16;0;6;4;6;6;5;5;5;3;6;4;0;7;0;7;2;6
1480357162.34;23;-24;1;58;39;4;26;40;40;11;14;51;36;21;42;-5;16;0;6;4;6;6;5;5;5;3;6;4;0;7;0;7;2;6
1480357162.34;23;-1;16;58;54;18;32;25;42;30;31;52;39;21;59;-1;27;0;6;4;6;6;5;5;5;3;6;4;0;7;0;7;2;6
1480357162.35;23;3;12;59;46;27;18;17;41;24;34;53;21;21;55;-3;33;0;6;4;6;6;5;5;5;3;6;4;0;7;0;7;2;6
1480357162.36;23;-19;-23;63;18;23;2;3;30;16;18;54;1;21;29;-12;28;0;6;4;6;6;5;5;5;3;6;4;0;7;0;7;2;6
1480357162.36;23;-19;-24;71;18;18;6;6;26;18;17;55;7;21;41;2;29;0;6;4;6;6;5;5;5;3;6;4;0;7;0;7;2;6
1480357162.37;23;0;-11;77;31;14;8;25;36;9;25;56;22;21;67;22;30;0;6;4;6;6;5;5;5;3;6;4;0;7;0;7;2;6
1480357162.38;23;-3;0;77;24;0;5;43;45;-1;30;57;27;21;62;16;22;0;6;4;6;6;5;5;5;3;6;4;0;7;0;7;2;6
1480357162.38;23;-3;0;77;24;0;5;43;45;-1;30;57;27;21;62;16;22;0;6;4;6;6;5;5;5;3;6;4;0;7;0;7;2;6
1480357162.39;22;-4;7;74;35;-14;21;58;52;-3;37;58;35;21;64;14;25;0;6;4;6;6;5;5;5;3;6;4;0;7;0;7;2;6
1480357162.4;22;2;1;67;62;-12;44;61;43;-14;46;59;41;21;66;24;31;0;6;4;6;6;5;5;5;3;6;4;0;7;0;7;2;6
1480357162.4;22;-16;6;49;57;-15;37;54;24;-21;40;60;28;21;39;9;20;0;6;4;6;6;5;5;5;3;6;4;0;7;0;7;2;6
1480357162.41;22;-25;-1;38;35;-14;9;63;27;-2;19;61;14;21;26;-9;8;0;6;4;6;6;5;5;5;3;6;4;0;7;0;7;2;6
1480357162.42;22;-7;-7;43;30;14;8;64;28;16;16;62;19;21;37;-1;21;0;6;4;6;6;5;5;5;3;6;4;0;7;0;7;2;6
1480357162.42;22;7;-3;43;36;41;27;32;8;24;31;63;19;21;28;2;37;0;6;4;6;6;5;5;5;3;6;4;0;7;0;7;2;6
1480357162.43;22;7;-3;43;36;41;27;32;8;24;31;63;19;21;28;2;37;0;6;4;6;6;5;5;5;3;6;4;0;7;0;7;2;6
1480357162.44;22;2;-7;39;35;36;23;10;-7;31;23;63;13;21;12;-4;32;0;6;4;6;6;5;5;5;3;6;4;0;7;0;7;2;6
1480357162.44;22;-2;-8;47;26;28;6;21;-4;31;12;63;12;21;16;2;28;0;6;4;6;6;5;5;5;3;6;4;0;7;0;7;2;6
1480357162.45;22;8;-13;63;16;34;7;41;4;24;20;63;12;21;30;7;33;0;6;4;6;6;5;5;5;3;6;4;0;7;0;7;2;6
1480357162.46;22;-6;-26;55;3;9;-5;42;1;6;8;63;1;21;32;1;12;0;6;4;6;6;5;5;5;3;6;4;0;7;0;7;2;6
1480357162.46;22;-33;-48;38;-13;-19;-36;46;-7;-11;-24;63;-9;21;21;-1;-18;0;6;4;6;6;5;5;5;3;6;4;0;7;0;7;2;6
1480357162.47;22;-25;-50;46;-12;-11;-34;69;-2;-3;-16;63;-4;21;22;15;-1;0;6;4;6;6;5;5;5;3;6;4;0;7;0;7;2;6
1480357162.48;22;-25;-50;46;-12;-11;-34;69;-2;-3;-16;63;-4;21;22;15;-1;0;6;4;6;6;5;5;5;3;6;4;0;7;0;7;2;6
1480357162.48;22;2;-15;61;0;2;-16;64;4;11;13;63;-3;21;30;28;27;0;6;4;6;6;5;5;5;3;6;4;0;7;0;7;2;6
1480357162.49;22;4;-4;60;-2;-4;-23;27;-2;9;9;63;-2;21;29;24;15;0;6;4;6;6;5;5;5;3;6;4;0;7;0;5;2;6
1480357162.5;22;-4;-13;54;-7;-9;-36;12;4;-1;-3;63;10;21;38;23;3;0;6;4;6;6;5;5;5;3;6;4;0;7;0;5;2;6
1480357162.51;22;1;-4;59;11;-5;-23;23;26;-2;10;63;25;21;58;36;16;0;6;4;6;6;5;5;5;3;6;4;0;6;0;5;2;6
1480357162.51;22;7;3;64;35;1;3;32;41;6;19;63;46;21;74;40;33;0;6;4;6;6;5;5;5;3;6;4;0;6;0;5;2;6
1480357162.52;22;7;3;64;35;1;3;32;41;6;19;63;46;21;74;40;33;0;6;4;6;6;5;5;5;3;6;4;0;6;0;5;2;6
1480357162.53;22;9;5;64;37;3;9;47;37;9;14;63;57;21;81;43;40;0;6;4;6;6;5;5;5;3;6;4;0;6;0;5;2;6
1480357162.53;22;9;-4;58;22;2;-4;68;17;3;1;63;34;21;70;46;34;0;6;4;6;6;5;5;5;3;6;4;0;6;0;5;2;6
1480357162.54;22;3;-19;45;5;-7;-16;68;-6;-5;-17;63;-3;21;35;34;19;0;6;3;6;6;5;5;5;3;6;4;0;6;0;5;2;6
1480357162.55;22;-4;-20;45;2;-10;-12;53;-10;-2;-25;63;-9;21;20;29;12;0;6;3;6;6;5;5;5;3;6;4;0;6;0;5;2;6
1480357162.55;22;4;-13;60;27;12;12;45;8;15;-11;63;16;21;48;40;27;0;6;3;6;6;5;5;5;3;6;4;0;6;0;5;2;6
1480357162.56;22;11;9;62;55;27;35;39;15;29;8;63;36;22;61;44;41;0;6;3;6;6;5;5;5;3;6;4;0;6;0;5;2;6
1480357162.57;22;8;15;48;59;15;37;31;4;31;7;81;30;21;46;41;39;0;6;3;6;6;5;5;5;3;6;4;3;6;0;5;2;6
1480357162.57;22;8;15;48;59;15;37;31;4;31;7;81;30;21;46;41;39;0;6;3;6;6;5;5;5;3;6;4;3;6;0;5;2;6
1480357162.58;22;15;6;43;44;2;28;26;-7;27;-5;82;11;21;43;42;30;0;6;3;6;6;5;5;5;3;6;4;5;6;0;5;2;6
1480357162.59;22;20;6;46;28;0;21;38;-5;16;-9;83;2;22;55;51;24;0;6;3;6;6;5;5;5;3;6;4;4;6;0;5;2;6
1480357162.59;22;17;-1;52;39;9;30;67;8;13;-7;84;17;21;62;56;31;0;6;3;6;6;5;5;5;3;6;4;6;6;0;5;2;6
1480357162.6;22;23;13;58;62;26;43;93;15;21;2;85;32;21;63;60;39;0;6;3;6;6;5;5;5;3;6;4;3;6;0;5;2;6
1480357162.61;22;25;27;64;62;34;40;115;8;24;5;86;26;21;66;64;35;0;6;3;6;6;5;5;5;3;6;4;5;6;0;5;2;6
1480357162.61;22;17;14;62;50;26;27;120;-1;15;-1;87;12;21;61;62;27;0;6;3;6;6;5;5;5;3;6;4;4;6;0;5;2;6
1480357162.62;22;17;14;62;50;26;27;120;-1;15;-1;87;12;21;61;62;27;0;6;3;6;6;5;5;5;3;6;4;4;6;0;5;2;6
1480357162.63;22;20;15;53;52;29;43;93;2;16;4;88;16;21;55;58;33;0;6;3;6;6;5;5;5;3;6;4;6;6;0;5;2;6
1480357162.63;22;22;11;53;68;41;63;62;11;33;11;89;33;21;61;58;44;0;6;3;6;6;5;5;5;3;6;4;3;6;0;5;2;6
1480357162.64;22;7;1;45;66;38;44;55;14;30;6;90;28;21;69;55;32;0;6;3;6;6;5;5;5;3;6;4;5;6;0;5;2;6
1480357162.65;22;-5;-16;32;42;28;22;63;5;7;-13;91;4;21;52;39;11;0;6;3;6;6;5;5;5;3;6;4;4;6;0;5;2;6
1480357162.65;22;0;-30;36;26;27;24;75;-5;3;-28;92;-7;21;34;33;10;0;6;3;6;6;5;5;5;3;6;4;6;6;0;5;2;6
1480357162.66;22;0;-30;36;26;27;24;75;-5;3;-28;92;-7;21;34;33;10;0;6;3;6;6;5;5;5;3;6;4;6;6;0;5;2;6
1480357162.67;22;15;-5;55;39;47;36;99;7;23;-14;93;1;21;46;52;25;0;6;3;6;6;5;5;5;3;6;4;3;6;0;5;2;6
1480357162.67;23;21;8;65;60;65;43;125;26;32;-2;94;7;21;66;65;33;0;6;3;6;6;5;5;5;3;6;4;5;6;0;5;2;6
1480357162.68;22;13;-3;59;55;60;33;136;19;24;-17;95;-1;21;54;59;26;0;6;3;6;6;5;5;5;3;6;4;4;6;0;5;2;6
1480357162.69;22;19;-5;51;38;54;22;143;2;24;-22;96;-13;21;36;54;26;0;6;3;6;6;5;5;5;3;6;4;6;6;0;5;2;6
1480357162.69;23;37;13;57;38;58;27;154;-3;30;-3;97;-19;21;34;62;36;0;6;3;6;6;5;5;5;3;6;4;3;6;0;5;2;6
1480357162.7;22;40;29;57;34;47;27;152;3;19;6;98;-16;21;31;67;33;0;6;3;6;6;5;5;5;3;6;4;5;6;0;5;2;6
1480357162.71;22;40;29;57;34;47;27;152;3;19;6;98;-16;21;31;67;33;0;6;3;6;6;5;5;5;3;6;4;5;6;0;5;2;6
1480357162.71;23;26;9;42;29;30;19;135;18;7;-11;99;-8;21;40;59;28;0;6;3;6;6;5;5;5;3;6;4;4;6;0;5;2;6
1480357162.72;22;13;-2;39;45;30;29;111;34;5;-17;100;4;21;59;55;27;0;6;3;6;6;5;5;5;3;6;4;6;6;0;5;2;6
1480357162.73;23;15;7;54;47;28;32;88;36;-9;-11;101;0;21;60;73;17;0;6;3;6;6;5;5;5;3;6;4;3;6;0;5;2;6
1480357162.73;23;29;11;58;34;21;20;95;30;-12;-9;102;-16;21;59;88;20;0;6;3;6;6;5;5;5;3;6;4;5;6;0;5;2;6
1480357162.74;23;35;35;57;44;27;23;135;26;5;1;103;-19;21;61;86;40;0;6;3;6;6;5;5;5;3;6;4;4;6;0;5;2;6
1480357162.75;23;34;40;63;54;36;31;157;22;11;7;104;-12;21;46;73;43;0;6;3;6;6;5;5;5;3;6;4;6;6;0;5;2;6
1480357162.75;23;34;40;63;54;36;31;157;22;11;7;104;-12;21;46;73;43;0;6;3;6;6;5;5;5;3;6;4;6;6;0;5;2;6
1480357162.76;23;32;18;58;36;35;27;163;21;5;-9;105;-10;21;34;66;28;0;6;3;6;6;5;5;5;3;6;4;3;6;0;5;2;6
1480357162.77;23;28;13;53;29;31;27;178;30;3;-20;106;-9;21;51;80;26;0;6;3;6;6;5;5;5;3;6;4;5;6;0;5;2;6
1480357162.77;23;35;23;58;40;35;30;178;36;5;-4;107;-8;21;65;88;37;0;6;3;6;6;5;5;5;3;6;4;4;6;0;5;2;6
1480357162.78;23;43;37;56;35;45;26;147;29;5;12;108;-22;21;52;79;37;0;6;3;6;6;5;5;5;3;6;4;6;6;0;5;2;6
1480357162.79;23;37;31;55;28;49;21;122;20;6;4;109;-32;21;41;78;30;0;6;3;6;6;5;5;5;3;6;4;3;6;0;5;2;6
1480357162.79;23;37;31;55;28;49;21;122;20;6;4;109;-32;21;41;78;30;0;6;3;6;6;5;5;5;3;6;4;3;6;0;5;2;6
1480357162.8;23;40;31;57;41;46;32;119;31;4;2;110;-17;21;59;93;33;0;6;3;6;6;5;5;5;3;6;4;5;6;0;5;2;6
1480357162.81;23;58;53;44;61;41;50;119;41;5;22;111;-7;21;67;95;46;0;6;3;6;6;5;5;5;3;6;4;4;6;0;5;2;6
1480357162.81;23;65;57;33;65;41;43;115;30;7;27;112;-23;21;44;88;56;0;6;3;6;6;5;5;5;3;6;4;6;6;0;5;2;6
1480357162.82;22;60;69;44;58;51;30;125;24;7;27;113;-41;21;41;92;54;0;6;3;6;6;5;5;5;3;6;4;3;6;0;5;2;6
1480357162.83;22;61;74;48;64;60;48;149;31;21;35;114;-34;21;65;90;61;0;6;3;6;6;5;5;5;3;6;4;5;6;0;5;2;6
1480357162.84;22;60;53;49;74;61;63;141;38;34;29;115;-24;21;68;90;59;0;6;3;6;6;5;5;5;3;6;4;4;6;0;5;2;6
1480357162.84;22;60;53;49;74;61;63;141;38;34;29;115;-24;21;68;90;59;0;6;3;6;6;5;5;5;3;6;4;4;6;0;5;2;6
1480357162.85;22;52;38;52;63;59;42;101;32;28;8;116;-33;21;48;93;37;0;6;3;6;6;5;5;5;3;6;4;6;6;0;5;2;6
1480357162.85;22;54;33;48;45;62;25;80;17;23;8;117;-52;21;36;89;36;0;6;3;6;6;5;5;5;3;6;4;3;6;0;5;2;6
1480357162.86;22;58;55;40;46;63;33;78;12;29;32;118;-68;21;28;86;62;0;6;3;6;6;5;5;5;3;6;4;5;6;0;5;2;6
1480357162.87;22;67;71;35;52;65;36;82;18;32;31;119;-69;22;28;90;68;0;6;3;6;6;5;5;5;3;6;4;4;6;0;5;2;6
1480357162.88;22;68;51;38;55;63;32;101;26;26;9;120;-65;21;44;86;44;0;6;3;6;6;5;5;5;3;6;4;6;6;0;5;2;6
1480357162.88;22;41;29;40;45;50;22;116;30;17;-5;121;-66;21;56;85;19;0;6;3;6;6;5;5;5;3;6;4;3;6;0;5;2;6
1480357162.89;22;41;29;40;45;50;22;116;30;17;-5;121;-66;21;56;85;19;0;6;3;6;6;5;5;5;3;6;4;3;6;0;5;2;6
1480357162.89;22;26;19;44;37;49;24;126;35;20;-5;122;-63;21;59;103;26;0;6;3;6;6;5;5;5;3;6;4;5;6;0;5;2;6
1480357162.9;22;51;42;44;50;63;44;144;43;33;13;123;-48;21;62;111;50;0;6;3;6;6;5;5;5;3;6;4;4;6;0;5;2;6
1480357162.91;22;66;63;38;66;61;55;148;48;35;27;124;-42;21;62;95;53;0;6;3;6;6;5;5;5;3;6;4;6;6;0;5;2;6
1480357162.91;22;43;50;31;65;50;51;123;51;29;19;125;-50;21;63;90;36;0;6;3;6;6;5;5;5;3;6;4;3;6;0;5;2;6
1480357162.92;22;28;42;29;62;54;54;97;45;30;11;126;-57;21;57;98;29;0;6;3;6;6;5;5;5;3;6;4;5;6;0;5;2;6
1480357162.93;22;28;42;29;62;54;54;97;45;30;11;126;-57;21;57;98;29;0;6;3;6;6;5;5;5;3;6;4;5;6;0;5;2;6
1480357162.93;23;32;39;35;68;56;64;88;35;31;11;127;-56;21;40;93;35;0;6;3;6;6;5;5;5;3;6;4;4;6;0;5;2;6
1480357162.94;23;33;51;32;66;37;64;82;34;30;12;244;-60;21;40;88;35;0;6;3;6;6;5;5;5;3;6;4;6;6;0;5;2;6
1480357162.95;23;34;62;30;63;27;55;86;36;23;15;244;-64;21;45;91;29;0;6;3;6;6;5;5;5;3;6;4;6;6;0;5;2;6
1480357162.95;23;34;47;35;59;31;41;109;36;11;13;244;-59;21;39;88;27;0;6;3;6;6;5;5;5;3;6;4;6;6;0;5;2;6
1480357162.96;23;22;34;34;40;28;28;122;38;8;4;244;-65;21;44;84;19;0;6;3;6;6;5;5;5;3;6;4;6;6;0;5;2;6
1480357162.97;23;21;28;28;25;23;25;107;40;22;1;244;-79;21;51;81;14;0;6;3;6;6;5;5;5;3;6;4;6;6;0;5;2;6
1480357162.97;23;21;28;28;25;23;25;107;40;22;1;244;-79;21;51;81;14;0;6;3;6;6;5;5;5;3;6;4;6;6;0;5;2;6
1480357162.98;23;46;48;26;30;27;19;84;31;32;10;244;-80;21;45;84;27;0;6;3;6;6;5;5;4;3;6;4;6;6;0;5;2;6
1480357162.99;23;52;61;29;26;24;5;68;34;28;6;244;-76;21;51;92;35;0;6;3;6;6;5;5;4;3;6;4;6;6;0;5;2;6
1480357162.99;23;30;30;34;8;9;-7;60;52;15;-13;244;-85;21;65;94;15;0;6;3;6;6;5;5;4;3;6;4;6;6;0;5;2;6
1480357163.0;23;18;21;35;7;-5;-15;68;56;-2;-23;244;-95;21;57;91;-4;0;6;3;6;6;5;5;4;3;6;4;6;6;0;5;2;6
1480357163.01;23;30;39;25;23;-3;-8;87;43;-4;-15;244;-93;21;52;89;9;0;6;3;6;6;5;5;4;3;6;4;6;6;0;5;2;6
1480357163.02;23;50;64;17;41;11;16;101;32;19;14;244;-95;21;54;78;40;0;6;3;6;6;5;5;4;3;6;4;6;6;0;5;2;6
1480357163.02;23;50;64;17;41;11;16;101;32;19;14;244;-95;21;54;78;40;0;6;3;6;6;5;5;4;3;6;4;6;6;0;5;2;6
1480357163.03;23;65;79;17;53;26;32;120;28;43;33;244;-97;21;39;66;56;0;6;3;6;6;5;5;4;3;6;4;6;6;0;5;2;6
1480357163.04;22;67;68;11;62;47;36;138;30;56;34;244;-89;21;28;65;60;0;6;3;6;6;5;5;4;3;6;4;6;6;0;5;2;6
1480357163.04;23;63;65;6;57;61;38;131;40;56;35;244;-86;21;37;65;59;0;6;3;6;6;5;5;4;3;6;4;6;6;0;5;2;6
1480357163.05;23;62;62;20;42;60;36;113;47;57;32;244;-87;21;52;73;56;0;6;3;6;6;5;5;4;3;6;4;6;6;0;5;2;6
1480357163.06;23;60;55;34;43;53;29;106;43;62;28;244;-86;21;53;89;57;0;6;3;6;6;5;5;4;3;6;4;6;6;0;5;2;6
1480357163.06;23;60;55;34;43;53;29;106;43;62;28;244;-86;21;53;89;57;0;6;3;6;6;5;5;4;3;6;4;6;6;0;5;2;6
1480357163.07;22;61;60;30;52;46;28;99;36;50;27;244;-85;21;44;89;48;0;6;3;6;6;5;5;4;3;6;4;6;6;0;5;2;6
1480357163.08;22;61;58;28;56;35;41;93;34;41;31;16;-85;21;37;70;39;0;6;3;6;6;5;5;4;3;6;4;0;6;0;5;2;6
1480357163.08;22;55;57;23;53;22;44;101;30;42;32;17;-92;21;30;64;39;0;6;3;6;6;5;5;4;3;6;4;0;6;0;5;2;6
1480357163.09;22;50;55;22;55;21;35;123;27;40;31;18;-94;21;31;77;38;0;6;3;6;6;5;5;4;3;6;4;0;6;0;5;2;6
1480357163.1;22;55;62;31;59;21;42;131;34;43;29;19;-78;21;39;79;32;0;6;3;6;6;5;5;4;3;6;4;0;6;0;5;2;6
1480357163.1;22;52;72;25;61;9;61;113;41;49;35;20;-61;21;39;76;32;0;6;3;6;6;5;5;4;3;6;4;0;6;0;5;2;6
1480357163.11;22;52;72;25;61;9;61;113;41;49;35;20;-61;21;39;76;32;0;6;3;6;6;5;5;4;3;6;4;0;6;0;5;2;6
1480357163.12;22;38;54;11;64;3;65;90;38;40;36;21;-60;21;36;83;33;0;6;3;6;6;5;5;4;3;6;4;0;6;0;5;2;6
1480357163.12;22;36;52;17;69;6;61;71;28;22;38;22;-68;21;29;88;35;0;6;3;6;6;5;5;4;3;6;4;0;6;0;5;2;6
1480357163.13;22;57;67;31;75;10;64;64;32;32;53;23;-67;21;34;89;54;0;6;3;6;6;5;5;4;3;6;4;0;6;0;5;2;6
1480357163.14;22;63;65;31;78;8;68;75;56;53;50;24;-54;21;53;89;63;0;6;3;6;6;5;5;4;3;6;4;0;6;0;5;2;6
1480357163.14;23;39;53;27;62;1;58;78;59;43;27;25;-58;21;54;81;44;0;6;3;6;6;5;5;4;3;6;4;0;6;0;5;2;6
1480357163.15;23;21;29;28;39;1;41;55;41;28;11;26;-77;21;39;64;29;0;6;3;6;6;5;5;4;3;6;4;0;6;0;5;2;6
1480357163.16;23;26;30;24;38;9;31;40;46;37;17;27;-79;21;40;55;27;0;6;3;6;6;5;5;4;3;6;4;0;6;0;5;2;6
1480357163.16;23;26;30;24;38;9;31;40;46;37;17;27;-79;21;40;55;27;0;6;3;6;6;5;5;4;3;6;4;0;6;0;5;2;6
1480357163.17;23;37;48;25;45;12;32;55;58;52;29;28;-70;21;50;57;30;0;6;3;6;6;5;5;4;3;6;4;0;6;0;5;2;6
1480357163.18;23;41;51;40;42;5;37;65;60;44;28;29;-63;21;55;52;34;0;6;3;6;6;5;5;4;3;6;4;0;6;0;5;2;6
1480357163.18;23;31;42;47;28;-1;35;58;69;29;25;30;-56;21;58;37;25;0;6;3;6;6;5;5;4;3;6;4;0;6;0;5;2;6
1480357163.19;23;28;24;53;31;1;36;60;86;32;26;31;-43;21;62;20;19;0;6;3;6;6;5;5;4;3;6;4;0;6;0;5;2;6
1480357163.2;23;46;36;64;54;5;51;82;96;44;38;32;-29;21;78;9;40;0;6;3;6;6;5;5;4;3;6;4;0;6;0;5;2;6
1480357163.2;23;63;52;54;63;5;56;90;92;43;48;33;-29;21;89;4;52;0;6;3;6;6;5;5;4;3;6;4;0;6;0;5;2;6
1480357163.21;23;63;52;54;63;5;56;90;92;43;48;33;-29;21;89;4;52;0;6;3;6;6;5;5;4;3;6;4;0;6;0;5;2;6
1480357163.22;23;54;30;40;42;2;35;72;77;35;43;34;-37;21;70;-4;33;0;6;3;6;6;5;5;4;3;6;4;0;6;0;5;2;6
1480357163.22;23;34;8;48;14;0;10;49;62;41;28;35;-45;21;51;-6;25;0;6;3;6;6;5;5;4;3;6;4;0;6;0;5;2;6
1480357163.23;23;34;-2;56;19;5;7;34;64;59;24;36;-44;21;64;-5;35;0;6;3;6;6;5;5;4;3;6;4;0;6;0;5;2;6
1480357163.24;23;42;3;46;31;18;17;22;67;60;33;37;-48;21;64;-10;32;0;6;3;6;6;5;5;4;3;6;4;0;6;0;5;2;6
1480357163.25;23;36;-5;44;25;27;22;23;50;48;28;38;-63;22;35;-17;24;0;6;3;6;6;5;5;4;3;6;4;0;6;0;5;2;6
1480357163.25;23;29;-26;60;31;30;35;45;41;52;25;39;-56;21;24;-12;31;0;6;3;6;6;5;5;4;3;6;4;0;6;0;5;2;6
1480357163.26;22;30;-9;57;51;28;52;61;63;53;42;40;-26;21;45;-2;36;0;6;3;6;6;5;5;4;3;6;4;0;6;0;5;2;6
1480357163.27;22;30;-9;57;51;28;52;61;63;53;42;40;-26;21;45;-2;36;0;6;3;6;6;5;5;4;3;6;4;0;6;0;5;2;6
1480357163.27;22;29;8;39;68;20;70;65;88;43;49;41;0;21;66;-5;26;0;6;3;6;6;5;5;4;3;6;4;0;6;0;5;2;6
1480357163.28;22;35;5;40;74;18;77;65;79;38;47;42;-4;21;63;-7;26;0;6;3;6;6;5;5;4;3;6;4;0;6;0;5;2;6
1480357163.29;22;55;11;57;72;20;69;51;62;39;55;43;-20;21;59;1;43;0;6;3;6;6;5;5;4;3;6;4;0;6;0;5;2;6
1480357163.29;22;59;5;66;65;13;59;37;63;38;54;44;-27;21;62;5;50;0;6;3;6;6;5;5;4;3;6;4;0;6;0;5;2;6
1480357163.3;22;34;-12;57;44;0;46;26;59;30;34;45;-39;21;51;2;26;0;6;3;6;6;5;5;4;3;6;4;0;6;0;5;2;6
1480357163.31;22;34;-12;57;44;0;46;26;59;30;34;45;-39;21;51;2;26;0;6;3;6;6;5;5;4;3;6;4;0;6;0;5;2;6
1480357163.31;22;17;-33;56;30;-6;36;10;53;25;19;46;-44;21;45;1;8;0;6;3;6;6;5;5;4;3;6;4;0;6;0;5;2;6
1480357163.32;22;39;-25;65;46;3;47;13;60;27;27;47;-36;21;57;7;31;0;6;3;6;6;5;5;4;3;6;4;0;6;0;5;2;6
1480357163.33;22;66;2;65;62;23;61;43;62;43;55;48;-29;21;61;7;55;0;6;3;6;6;5;5;4;3;6;4;0;6;0;5;2;6
1480357163.33;22;61;-6;65;66;50;64;73;58;61;67;49;-22;21;53;-3;54;0;6;3;6;6;5;5;4;3;6;4;0;6;0;5;2;6
1480357163.34;22;49;-9;69;75;61;76;79;72;62;70;50;-9;21;64;-1;49;0;6;3;6;6;5;5;4;3;6;4;0;6;0;5;2;6
1480357163.35;23;55;-5;67;79;64;90;69;91;67;76;51;2;21;76;5;56;0;6;3;6;6;5;5;4;3;6;4;0;6;0;5;2;6
1480357163.35;23;55;-5;67;79;64;90;69;91;67;76;51;2;21;76;5;56;0;6;3;6;6;5;5;4;3;6;4;0;6;0;5;2;6
1480357163.36;22;65;-7;73;79;80;82;59;95;86;74;52;13;21;82;3;63;0;6;3;6;6;5;5;4;3;6;4;0;6;0;5;2;6
1480357163.37;22;67;-4;78;85;89;76;58;92;90;66;53;17;21;82;13;57;0;6;3;6;6;5;5;4;3;6;4;0;6;0;5;2;6
1480357163.37;22;65;-13;71;78;73;74;61;89;67;62;54;7;22;73;18;47;0;6;3;6;6;5;5;4;3;6;4;0;6;0;5;2;6
1480357163.38;22;60;-18;77;72;58;61;65;86;59;65;55;3;21;72;10;41;0;6;3;6;6;5;5;4;3;6;4;0;6;0;5;2;6
1480357163.39;22;60;-20;85;82;48;66;57;87;60;63;56;13;22;81;17;40;0;6;3;6;6;5;5;4;3;6;4;0;6;0;5;2;6
1480357163.39;22;62;-27;74;75;32;68;23;87;36;52;57;11;21;73;28;36;0;6;3;6;6;5;5;4;3;6;4;0;6;0;5;2;6
1480357163.4;22;62;-27;74;75;32;68;23;87;36;52;57;11;21;73;28;36;0;6;3;6;6;5;5;4;3;6;4;0;6;0;5;2;6
1480357163.41;22;48;-29;66;48;14;38;-10;82;12;33;58;-2;21;55;27;20;0;6;3;6;6;5;5;4;3;6;4;0;6;0;5;2;6
1480357163.41;22;30;-42;73;40;6;21;-3;84;19;25;59;-1;21;56;27;6;0;6;3;6;6;5;5;4;3;6;4;0;6;0;5;2;6
1480357163.42;22;26;-41;62;39;13;30;17;87;26;34;60;3;21;64;27;12;0;6;3;6;6;5;5;4;3;6;4;0;6;0;5;2;6
1480357163.43;22;30;-34;41;35;43;28;34;75;31;32;61;-7;21;58;20;28;0;6;3;6;6;5;5;4;3;6;4;0;6;0;5;2;6
1480357163.43;22;36;-42;35;30;65;15;54;58;48;19;62;-25;21;42;18;30;0;6;3;6;6;5;5;4;3;6;4;0;6;0;5;2;6
1480357163.44;22;36;-42;35;30;65;15;54;58;48;19;62;-25;21;42;18;30;0;6;3;6;6;5;5;4;3;6;4;0;6;0;5;2;6
1480357163.45;22;42;-38;41;23;64;16;64;54;60;20;63;-28;21;35;23;25;0;6;3;6;6;5;5;4;3;6;4;0;6;0;5;2;6
1480357163.45;22;43;-34;57;36;67;34;69;62;55;29;63;-9;21;51;24;31;0;6;3;6;6;5;5;4;3;6;4;0;6;0;5;2;6
1480357163.46;22;32;-28;61;53;64;51;59;61;44;32;63;1;21;63;20;28;0;6;3;6;6;5;5;4;3;6;4;0;6;0;5;2;6
1480357163.47;22;25;-24;56;50;50;58;35;54;37;35;63;-9;21;52;20;25;0;6;3;6;6;5;5;4;3;6;4;0;6;0;5;2;6
1480357163.47;22;45;-24;57;48;52;59;23;53;35;40;63;-11;21;36;28;34;0;6;3;6;6;5;5;4;3;6;4;0;6;0;5;2;6
1480357163.48;22;53;-19;58;54;54;59;27;54;29;44;63;-9;21;31;34;36;0;6;3;6;6;5;5;5;3;6;4;0;6;0;5;2;6
1480357163.49;22;53;-19;58;54;54;59;27;54;29;44;63;-9;21;31;34;36;0;6;3;6;6;5;5;5;3;6;4;0;6;0;5;2;6
1480357163.49;22;34;-28;59;61;34;62;42;58;25;38;63;-1;21;47;31;29;0;6;3;6;6;5;5;5;3;6;4;0;6;0;5;2;6
1480357163.5;22;38;-23;60;63;23;66;64;64;26;43;63;21;21;66;32;27;0;6;3;6;6;5;5;5;3;6;4;0;6;0;5;2;6
1480357163.51;22;62;-7;62;59;31;67;62;64;29;56;63;22;21;57;35;35;0;6;3;6;6;5;5;5;3;6;4;0;6;0;5;2;6
1480357163.52;22;63;-11;63;54;39;63;36;57;40;59;63;1;21;44;32;46;0;6;3;6;6;5;5;5;3;6;4;0;6;0;5;2;6
1480357163.52;22;52;-6;60;56;42;59;23;56;49;66;63;0;21;51;34;53;0;6;3;6;6;5;5;5;3;6;4;0;6;0;5;2;6
1480357163.53;22;64;3;60;67;43;65;28;63;42;76;63;25;21;66;41;64;0;6;3;6;6;5;5;5;3;6;4;0;6;0;5;2;6
1480357163.54;22;64;2;58;71;37;60;29;64;32;68;63;33;22;68;41;64;0;6;3;6;6;5;5;5;3;6;4;0;6;0;5;2;6
1480357163.54;22;64;2;58;71;37;60;29;64;32;68;63;33;22;68;41;64;0;6;3;6;6;5;5;5;3;6;4;0;6;0;5;2;6
1480357163.55;23;33;-23;43;52;29;29;25;54;23;42;63;8;21;45;32;38;0;6;3;6;6;5;5;5;3;6;4;0;6;0;5;2;6
1480357163.56;23;12;-62;24;24;21;-1;31;34;18;21;63;-24;21;12;12;17;0;6;3;6;6;5;5;5;3;6;4;0;6;0;5;2;6
1480357163.56;23;23;-46;22;23;17;0;42;23;24;26;63;-23;21;7;-1;23;0;6;3;6;6;5;5;5;3;6;4;0;6;0;5;2;6
1480357163.57;23;37;-25;31;35;30;6;34;31;35;41;63;-2;21;24;13;33;0;6;3;6;6;5;5;5;3;6;4;0;6;0;5;2;6
1480357163.58;23;29;-42;46;31;48;-3;22;47;45;35;63;4;21;30;25;28;0;6;3;6;6;5;5;5;3;6;4;0;6;0;5;2;6
1480357163.58;23;29;-42;46;31;48;-3;22;47;45;35;63;4;21;30;25;28;0;6;3;6;6;5;5;5;3;6;4;0;6;0;5;2;6
1480357163.59;23;26;-39;57;39;57;8;45;59;58;27;81;13;21;35;33;26;0;6;3;6;6;5;5;5;3;6;4;3;6;0;5;2;6
1480357163.6;23;45;-25;62;62;60;29;68;66;64;40;82;32;21;54;48;38;0;6;3;6;6;5;5;5;3;6;4;5;6;0;5;2;6
1480357163.6;23;62;-11;59;64;64;24;64;66;60;48;83;32;21;62;55;54;0;6;3;6;6;5;5;5;3;6;4;4;6;0;5;2;6
1480357163.61;23;62;-2;45;61;67;12;65;69;57;48;84;32;21;62;46;66;0;6;3;6;6;5;5;5;3;6;4;6;6;0;5;2;6
1480357163.62;23;52;-5;39;64;56;4;58;70;50;52;85;38;21;64;48;54;0;6;3;6;6;5;5;5;3;6;4;3;6;0;5;2;6
1480357163.62;23;49;-9;49;52;44;-7;25;62;42;50;86;18;21;58;61;32;0;6;3;6;6;5;5;5;3;6;4;5;6;0;5;2;6
1480357163.63;23;49;-9;49;52;44;-7;25;62;42;50;86;18;21;58;61;32;0;6;3;6;6;5;5;5;3;6;4;5;6;0;5;2;6
1480357163.63;23;55;-8;49;53;57;-4;7;60;57;51;87;8;21;51;56;44;0;6;3;6;6;5;5;5;3;6;4;4;6;0;5;2;6
1480357163.64;23;64;8;29;64;73;4;9;66;78;68;88;24;21;45;41;69;0;6;3;6;6;5;5;5;3;6;4;6;6;0;5;2;6
1480357163.65;22;61;-7;23;47;72;-6;2;57;73;65;89;19;21;34;41;66;0;6;3;6;6;5;5;5;3;6;4;3;6;0;5;2;6
1480357163.66;22;45;-36;31;39;67;-8;8;40;62;45;90;2;21;28;49;56;0;6;3;6;6;5;5;5;3;6;4;5;6;0;5;2;6
1480357163.66;22;28;-30;30;54;63;2;24;32;57;42;91;1;21;30;51;47;0;6;3;6;6;5;5;5;3;6;4;4;6;0;5;2;6
1480357163.67;22;34;-28;28;54;62;-5;34;31;50;42;92;6;21;29;50;37;0;6;3;6;6;5;5;5;3;6;4;6;6;0;5;2;6
1480357163.68;22;34;-28;28;54;62;-5;34;31;50;42;92;6;21;29;50;37;0;6;3;6;6;5;5;5;3;6;4;6;6;0;5;2;6
1480357163.68;22;47;-26;27;40;56;-21;48;43;46;34;93;16;21;36;58;36;0;6;3;6;6;5;5;5;3;6;4;3;6;0;5;2;6
1480357163.69;22;39;-29;28;29;40;-29;58;56;43;23;94;26;21;46;63;39;0;6;3;6;6;5;5;5;3;6;4;5;6;0;5;2;6
1480357163.7;22;27;-38;30;29;31;-29;57;56;30;19;95;25;21;39;55;30;0;6;3;6;6;5;5;5;3;6;4;4;6;0;5;2;6
1480357163.7;22;32;-24;35;38;34;-23;66;52;25;25;96;21;21;34;63;27;0;6;3;6;6;5;5;5;3;6;4;6;6;0;5;2;6
1480357163.71;22;38;-24;36;32;33;-32;82;53;32;25;97;19;21;39;81;36;0;6;3;6;6;5;5;5;3;6;4;3;6;0;5;2;6
1480357163.72;22;38;-24;36;32;33;-32;82;53;32;25;97;19;21;39;81;36;0;6;3;6;6;5;5;5;3;6;4;3;6;0;5;2;6
1480357163.72;22;29;-30;32;13;30;-54;67;47;28;25;98;10;21;37;82;38;0;6;3;6;6;5;5;5;3;6;4;5;6;0;5;2;6
1480357163.73;22;32;-21;32;21;35;-54;27;39;29;38;99;2;21;33;77;36;0;6;3;6;6;5;5;5;3;6;4;4;6;0;5;2;6
1480357163.74;22;43;-17;36;35;39;-34;1;38;34;47;100;11;21;32;75;39;0;6;3;6;6;5;5;5;3;6;4;6;6;0;5;2;6
1480357163.74;22;29;-14;23;25;31;-34;-4;35;20;34;101;13;21;36;65;28;0;6;3;6;6;5;5;5;3;6;4;3;6;0;5;2;6
1480357163.75;22;18;-20;13;24;30;-52;2;46;6;19;102;10;21;51;61;11;0;6;3;6;6;5;5;5;3;6;4;5;6;0;5;2;6
1480357163.76;22;25;-24;19;32;38;-60;11;59;9;23;103;15;21;51;72;10;0;6;3;6;6;5;5;5;3;6;4;4;6;0;5;2;6
1480357163.76;22;25;-24;19;32;38;-60;11;59;9;23;103;15;21;51;72;10;0;6;3;6;6;5;5;5;3;6;4;4;6;0;5;2;6
1480357163.77;22;34;-14;11;29;52;-47;20;55;19;42;104;22;21;33;72;26;0;6;3;6;6;5;5;5;3;6;4;6;6;0;5;2;6
1480357163.78;22;46;2;3;34;79;-26;40;57;35;55;105;28;21;29;63;47;0;6;3;6;6;5;5;5;3;6;4;3;6;0;5;2;6
1480357163.78;22;45;10;6;45;86;-23;59;57;42;50;106;31;21;30;63;45;0;6;3;6;6;5;5;5;3;6;4;5;6;0;5;2;6
1480357163.79;22;21;-23;6;35;65;-33;60;40;25;23;107;34;21;27;61;16;0;6;3;6;6;5;5;5;3;6;4;4;6;0;5;2;6
1480357163.8;23;14;-43;8;17;57;-37;42;29;13;5;108;28;21;32;67;7;0;6;3;6;6;5;5;5;3;6;4;6;6;0;5;2;6
1480357163.8;22;31;-24;-2;15;66;-36;12;30;15;20;109;23;21;26;70;32;0;6;3;6;6;5;5;5;3;6;4;3;6;0;5;2;6
1480357163.81;22;31;-24;-2;15;66;-36;12;30;15;20;109;23;21;26;70;32;0;6;3;6;6;5;5;5;3;6;4;3;6;0;5;2;6
1480357163.82;22;37;-19;-17;30;68;-28;-6;31;12;35;110;30;21;21;55;42;0;6;3;6;6;5;5;5;3;6;4;5;6;0;5;2;6
1480357163.82;23;29;-29;-21;25;58;-38;-6;30;-3;19;111;31;21;26;47;22;0;6;3;6;6;5;5;5;3;6;4;4;6;0;5;2;6
1480357163.83;22;15;-56;-21;-8;45;-74;-3;24;-16;-7;112;18;21;13;54;7;0;6;3;6;6;5;5;5;3;6;4;6;6;0;5;2;6
1480357163.84;22;6;-64;-20;-21;32;-85;4;15;-22;-10;113;4;21;4;59;2;0;6;3;6;6;5;5;5;3;6;4;3;6;0;5;2;6
1480357163.84;22;2;-47;-6;-9;27;-71;20;13;-29;-7;114;-2;21;13;68;-2;0;6;3;6;6;5;5;5;3;6;4;5;6;0;5;2;6
1480357163.85;22;2;-47;-6;-9;27;-71;20;13;-29;-7;114;-2;21;13;68;-2;0;6;3;6;6;5;5;5;3;6;4;5;6;0;5;2;6
1480357163.86;22;-2;-52;4;5;27;-64;16;17;-31;-11;115;7;21;18;78;-4;0;6;3;6;6;5;5;5;3;6;4;4;6;0;5;2;6
1480357163.86;23;10;-36;-5;17;41;-48;-13;29;-19;10;116;33;21;22;76;11;0;6;3;6;6;5;5;5;3;6;4;6;6;0;5;2;6
1480357163.87;22;28;-13;-3;33;53;-22;-27;42;-10;34;117;53;21;33;63;28;0;6;3;6;6;5;5;5;3;6;4;3;6;0;5;2;6
1480357163.88;22;16;-24;-1;36;39;-27;-30;43;-23;22;118;51;21;35;60;16;0;6;3;6;6;5;5;5;3;6;4;5;6;0;5;2;6
1480357163.88;22;-4;-35;-11;17;25;-54;-40;38;-43;3;119;41;21;32;81;-2;0;6;3;6;6;5;5;5;3;6;4;4;6;0;5;2;6
1480357163.89;22;8;-36;-11;-2;28;-64;-48;36;-42;-1;120;36;21;33;86;-2;0;6;3;6;6;5;5;5;3;6;4;6;6;0;5;2;6
1480357163.9;22;8;-36;-11;-2;28;-64;-48;36;-42;-1;120;36;21;33;86;-2;0;6;3;6;6;5;5;5;3;6;4;6;6;0;5;2;6
1480357163.9;22;27;-16;-7;3;37;-55;-32;29;-26;7;121;35;21;27;69;11;0;6;3;6;6;5;5;5;3;6;4;3;6;0;5;2;6
1480357163.91;22;33;0;-3;28;54;-35;-5;36;-7;17;122;46;21;29;79;29;0;6;3;6;6;5;5;5;3;6;4;5;6;0;5;2;6
1480357163.92;22;31;-12;0;36;65;-29;-12;56;-3;21;123;61;22;37;88;34;0;6;3;6;6;5;5;5;3;6;4;4;6;0;5;2;6
1480357163.92;22;22;-29;-5;16;44;-43;-56;53;-21;16;124;48;21;36;70;17;0;6;3;6;6;5;5;5;3;6;4;6;6;0;5;2;6
1480357163.93;22;26;-23;-4;14;36;-44;-73;30;-21;17;125;28;21;29;69;20;0;6;3;6;6;5;5;5;3;6;4;3;6;0;5;2;6
1480357163.94;22;51;13;9;35;58;-34;-53;31;-1;41;126;38;21;28;95;45;0;6;3;6;6;5;5;5;3;6;4;5;6;0;5;2;6
1480357163.94;22;51;13;9;35;58;-34;-53;31;-1;41;126;38;21;28;95;45;0;6;3;6;6;5;5;5;3;6;4;5;6;0;5;2;6
1480357163.95;22;58;22;14;49;60;-25;-37;52;0;51;127;61;22;41;97;43;0;6;3;6;6;5;5;5;3;6;4;4;6;0;5;2;6
1480357163.96;22;41;8;2;53;53;-9;-21;58;-11;35;244;69;21;53;84;32;0;6;3;6;6;5;5;5;3;6;4;6;6;0;5;2;6
1480357163.96;22;32;17;-4;58;62;3;-1;63;-11;36;244;71;21;65;90;38;0;4;3;6;6;5;5;5;3;6;4;6;6;0;5;2;6
1480357163.97;22;47;12;0;56;71;3;4;64;6;46;244;76;21;58;92;48;0;4;3;6;6;5;5;5;3;6;4;6;6;0;5;2;6
1480357163.98;22;61;9;3;51;75;6;-3;38;24;41;244;63;21;33;83;52;0;4;3;6;6;5;5;5;3;6;4;6;6;0;5;2;6
1480357163.98;22;61;9;3;51;75;6;-3;38;24;41;244;63;21;33;83;52;0;4;3;6;6;5;5;5;3;6;4;6;6;0;5;2;6
1480357163.99;23;61;20;4;46;77;6;-18;22;23;38;244;41;21;21;79;53;0;4;3;6;6;5;5;5;3;6;4;6;6;0;5;2;6
1480357164.0;23;57;14;11;40;75;2;-25;39;14;44;244;44;21;31;83;52;0;4;3;6;6;5;5;5;3;6;4;6;6;0;5;2;6
1480357164.0;23;56;17;16;39;73;8;-13;58;19;39;244;56;21;41;90;52;0;4;3;6;6;5;5;5;3;6;4;6;6;0;5;2;6
1480357164.01;23;64;25;16;54;82;16;3;64;30;34;244;68;21;54;88;64;0;4;3;6;6;5;5;5;3;6;4;6;6;0;5;2;6
1480357164.02;23;70;22;22;55;84;13;18;64;28;41;244;70;21;65;77;64;0;4;3;6;6;5;5;5;3;6;4;6;6;0;5;2;6
1480357164.03;23;60;9;33;30;62;4;37;58;16;33;244;54;21;52;66;42;0;4;3;6;6;5;5;5;3;6;4;6;6;0;5;2;6
1480357164.03;23;40;-9;37;18;38;-11;42;58;4;12;244;46;21;46;58;31;0;4;3;6;6;5;5;5;3;6;4;6;6;0;5;2;6
1480357164.04;23;40;-9;37;18;38;-11;42;58;4;12;244;46;21;46;58;31;0;4;3;6;6;5;5;5;3;6;4;6;6;0;5;2;6
1480357164.05;23;23;-20;34;24;27;-20;12;63;-11;1;244;54;21;61;43;27;0;4;3;6;6;5;5;5;3;6;4;6;6;0;5;2;6
1480357164.05;23;23;-31;35;30;32;-12;-19;67;-11;4;244;62;21;69;33;26;0;4;3;6;6;5;5;5;3;6;4;6;6;0;5;2;6
1480357164.06;23;44;-16;39;39;46;2;-16;69;15;24;244;63;21;69;31;45;0;4;3;6;6;5;5;5;3;6;4;6;6;0;5;2;6
1480357164.07;23;56;2;37;41;55;8;-5;65;31;40;244;56;21;61;17;62;0;4;3;6;6;5;5;5;3;6;4;6;6;0;5;2;6
1480357164.07;23;40;-34;30;20;42;-4;-8;57;11;20;244;40;22;41;-1;43;0;4;3;6;6;5;5;5;3;6;4;6;6;0;5;2;6
1480357164.08;23;13;-63;22;5;25;-21;1;52;-8;-11;244;36;21;25;-3;19;0;4;3;6;6;5;5;5;3;6;4;6;6;0;5;2;6
1480357164.09;23;13;-63;22;5;25;-21;1;52;-8;-11;244;36;21;25;-3;19;0;4;3;6;6;5;5;5;3;6;4;6;6;0;5;2;6
1480357164.09;23;13;-59;22;17;35;-16;25;54;0;-10;16;51;21;35;-2;27;0;4;3;6;6;5;5;5;3;6;4;0;6;0;5;2;6
1480357164.1;23;38;-41;26;32;55;0;42;62;15;21;17;63;21;54;-3;50;0;4;3;6;6;5;5;5;3;6;4;0;6;0;5;2;6
1480357164.11;23;61;-18;18;43;64;17;57;68;25;46;18;69;21;61;3;70;0;4;3;6;6;5;5;5;3;6;4;0;6;0;5;2;6
1480357164.11;23;70;-17;17;44;53;26;57;65;23;46;19;73;21;51;3;77;0;4;3;6;6;5;5;5;3;6;4;0;6;0;5;2;6
1480357164.12;23;57;-22;20;31;35;9;22;58;6;38;20;62;21;39;-3;66;0;4;3;6;6;5;5;5;3;6;4;0;6;0;5;2;6
1480357164.13;22;39;-31;17;27;26;-6;-4;60;-8;22;21;56;22;52;10;55;0;4;3;6;6;5;5;5;3;6;4;0;6;0;5;2;6
1480357164.13;22;39;-31;17;27;26;-6;-4;60;-8;22;21;56;22;52;10;55;0;4;3;6;6;5;5;5;3;6;4;0;6;0;5;2;6
1480357164.14;22;33;-40;21;32;11;2;-5;66;-21;3;22;67;22;66;29;39;0;4;3;6;6;5;5;5;3;6;4;0;6;0;5;2;6
1480357164.15;22;32;-46;21;17;-4;-8;-5;64;-29;0;23;58;21;62;29;22;0;4;3;6;6;5;5;5;3;6;4;0;6;0;5;2;6
1480357164.15;22;28;-60;16;2;-6;-33;7;59;-26;-7;24;38;21;55;18;24;0;4;3;6;6;5;5;5;3;6;4;0;6;0;5;2;6
1480357164.16;23;24;-55;24;-2;-17;-38;29;65;-29;-21;25;43;21;61;25;22;0;4;3;6;6;5;5;5;3;6;4;0;6;0;5;2;6
1480357164.17;23;26;-53;33;2;-26;-33;49;70;-34;-19;26;61;21;67;25;11;0;4;3;6;6;5;5;5;3;6;4;0;6;0;5;2;6
1480357164.17;23;26;-53;33;2;-26;-33;49;70;-34;-19;26;61;21;67;25;11;0;4;3;6;6;5;5;5;3;6;4;0;6;0;5;2;6
1480357164.18;23;30;-60;15;18;-7;-15;59;68;-17;-11;27;80;21;68;7;17;0;4;3;6;6;5;5;5;3;6;4;0;6;0;5;2;6
1480357164.19;23;33;-50;-3;35;18;5;50;65;-1;-12;28;84;21;61;-2;35;0;4;3;6;6;5;5;5;3;6;4;0;6;0;5;2;6
1480357164.19;23;34;-48;3;37;28;12;31;61;10;-13;29;78;21;53;-1;39;0;4;3;6;6;5;5;5;3;6;4;0;6;0;5;2;6
1480357164.2;23;30;-44;11;32;31;18;27;57;18;-8;30;76;21;58;-3;36;0;4;3;6;6;5;5;5;3;6;4;0;6;0;5;2;6
1480357164.21;23;25;-41;12;31;25;25;41;60;13;-10;31;72;21;57;-2;29;0;4;3;6;6;5;5;5;3;6;4;0;6;0;5;2;6
1480357164.21;23;31;-44;7;34;21;21;48;58;12;-13;32;63;21;41;0;32;0;4;3;6;6;5;5;5;3;6;4;0;6;0;5;2;6
1480357164.22;23;31;-44;7;34;21;21;48;58;12;-13;32;63;21;41;0;32;0;4;3;6;6;5;5;5;3;6;4;0;6;0;5;2;6
1480357164.23;23;47;-28;-3;27;20;8;32;38;22;-5;33;46;22;27;-2;46;0;4;3;6;6;5;5;5;3;6;4;0;6;0;5;2;6
1480357164.23;22;56;-27;-2;10;15;-5;8;24;31;-9;34;30;22;26;-9;47;0;4;3;6;6;5;5;5;3;6;4;0;6;0;5;2;6
1480357164.24;23;56;-28;15;14;8;-6;3;41;28;-13;35;35;22;36;1;45;0;4;3;6;6;5;5;5;3;6;4;0;6;0;5;2;6
1480357164.25;22;51;-23;15;34;2;3;7;55;14;-12;36;59;22;46;20;47;0;4;3;6;6;5;5;5;3;6;4;0;6;0;5;2;6
1480357164.26;22;44;-29;3;38;-3;7;14;49;0;-15;37;72;22;52;22;42;0;4;3;6;6;5;5;5;3;6;4;0;6;0;5;2;6
1480357164.26;22;48;-16;5;45;-6;14;32;53;8;-11;38;73;22;57;20;40;0;4;3;6;6;5;5;5;3;6;4;0;6;0;5;2;6
1480357164.27;22;61;-7;14;57;-1;32;46;62;28;-6;39;76;22;66;28;51;0;4;3;6;6;5;5;5;3;6;4;0;6;0;5;2;6
1480357164.28;22;61;-7;14;57;-1;32;46;62;28;-6;39;76;22;66;28;51;0;4;3;6;6;5;5;5;3;6;4;0;6;0;5;2;6
1480357164.28;22;60;-11;10;43;-5;24;34;56;26;-13;40;63;22;65;31;52;0;4;3;6;6;5;5;5;3;6;4;0;6;0;5;2;6
1480357164.29;22;49;-15;3;27;-5;0;10;52;22;-19;41;54;21;60;26;44;0;4;3;6;6;5;5;5;3;6;4;0;6;0;5;2;6
1480357164.3;22;50;-13;4;34;21;4;-3;59;33;-17;42;62;22;64;24;51;0;4;3;6;6;5;5;5;3;6;4;0;6;0;5;2;6
1480357164.3;22;52;-5;-2;29;28;16;-3;59;34;-18;43;61;22;60;23;52;0;4;3;6;6;5;5;5;3;6;4;0;6;0;5;2;6
1480357164.31;22;54;-16;1;22;8;10;15;59;31;-15;44;59;22;60;24;51;0;4;3;6;6;5;5;5;3;6;4;0;6;0;5;2;6
1480357164.32;22;61;-11;13;30;4;7;32;65;32;0;45;63;21;64;30;55;0;4;3;6;6;5;5;5;3;6;4;0;6;0;5;2;6
1480357164.32;22;61;-11;13;30;4;7;32;65;32;0;45;63;21;64;30;55;0;4;3;6;6;5;5;5;3;6;4;0;6;0;5;2;6
1480357164.33;22;66;14;16;24;8;4;31;63;24;2;46;64;21;63;32;60;0;4;3;6;6;5;5;5;3;6;4;0;6;0;5;2;6
1480357164.34;22;68;13;20;16;3;1;45;66;24;-6;47;65;21;76;33;66;0;4;3;6;6;5;5;5;3;6;4;0;6;0;5;2;6
1480357164.34;22;64;6;24;19;-9;-3;64;77;22;-13;48;64;21;84;36;57;0;4;3;6;6;5;5;5;3;6;4;0;6;0;5;2;6
1480357164.35;22;62;3;23;15;-26;-11;34;73;3;-17;49;56;21;66;35;38;0;4;3;6;6;5;5;5;3;6;4;0;6;0;5;2;6
1480357164.36;23;62;10;23;10;-37;-14;-8;54;3;-17;50;46;21;57;31;42;0;4;3;6;6;5;5;5;3;6;4;0;6;0;5;2;6
1480357164.36;23;62;10;23;10;-37;-14;-8;54;3;-17;50;46;21;57;31;42;0;4;3;6;6;5;5;5;3;6;4;0;6;0;5;2;6
1480357164.37;23;63;8;20;10;-34;-13;-2;40;20;-19;51;37;21;61;29;54;0;4;3;6;6;5;5;5;3;6;4;0;6;0;5;2;6
1480357164.38;23;54;-24;6;-6;-46;-29;5;35;11;-37;52;31;21;49;19;39;0;4;3;6;6;5;5;5;3;6;4;0;6;0;5;2;6
1480357164.38;23;34;-32;-7;-34;-73;-49;-13;30;-15;-57;53;27;21;31;5;13;0;4;3;6;6;5;5;5;3;6;4;0;6;0;5;2;6
1480357164.39;23;25;-22;-7;-29;-69;-40;0;34;-10;-59;54;31;21;32;3;13;0;4;3;6;6;5;5;5;3;6;4;0;6;0;5;2;6
1480357164.4;23;29;-21;-7;-4;-41;-26;38;38;15;-52;55;48;21;32;7;23;0;4;3;6;6;5;5;5;3;6;4;0;6;0;5;2;6
1480357164.4;23;29;-18;-12;-2;-14;-24;33;36;28;-42;56;47;21;28;0;23;0;4;3;6;6;5;5;5;3;6;4;0;6;0;5;2;6
1480357164.41;23;29;-18;-12;-2;-14;-24;33;36;28;-42;56;47;21;28;0;23;0;4;3;6;6;5;5;5;3;6;4;0;6;0;5;2;6
1480357164.41;23;29;-21;-10;-8;2;-14;4;29;36;-36;57;32;21;21;-6;31;0;4;3;6;6;5;5;5;3;6;4;0;6;0;5;2;6
1480357164.42;23;34;-13;-3;6;11;9;12;27;49;-27;58;37;21;23;3;41;0;4;3;6;6;5;5;5;3;6;4;0;6;0;5;2;6
1480357164.43;23;33;-4;2;33;25;30;33;43;59;-15;59;61;21;40;12;42;0;4;3;6;6;5;5;5;3;6;4;0;6;0;5;2;6
1480357164.44;23;33;3;1;50;32;39;36;56;55;-10;60;68;21;43;8;43;0;4;3;6;6;5;5;5;3;6;4;0;6;0;5;2;6
1480357164.44;23;44;23;-3;56;15;47;40;51;44;-9;61;64;21;30;1;44;0;4;3;6;6;5;5;5;3;6;4;0;6;0;5;2;6
1480357164.45;23;57;22;4;58;14;56;64;40;38;-14;62;64;21;28;2;46;0;4;3;6;6;5;5;5;3;6;4;0;6;0;5;2;6
1480357164.46;23;57;22;4;58;14;56;64;40;38;-14;62;64;21;28;2;46;0;4;3;6;6;5;5;5;3;6;4;0;6;0;5;2;6
1480357164.46;23;60;28;9;57;36;58;70;36;45;-13;63;59;21;31;4;58;0;4;3;6;6;5;5;5;3;6;4;0;6;0;5;2;6
1480357164.47;23;60;47;5;58;46;58;39;34;65;-3;63;61;21;26;-2;70;0;5;3;6;6;5;5;5;3;6;4;0;6;0;5;2;6
1480357164.48;22;66;43;1;61;39;54;10;30;72;1;63;65;21;23;-2;65;0;5;3;6;6;5;5;5;3;6;4;0;6;0;5;2;6
1480357164.48;22;55;26;1;48;33;38;8;27;57;-17;63;42;21;13;0;46;0;5;3;6;6;5;5;5;3;6;4;0;6;0;5;2;6
1480357164.49;22;33;7;5;30;27;28;18;21;35;-38;63;27;21;8;-3;29;0;5;3;6;6;5;5;5;3;6;4;0;6;0;5;2;6
1480357164.5;22;37;16;10;32;24;38;26;32;27;-31;63;51;21;29;-3;23;0;5;3;6;6;5;5;4;3;6;4;0;6;0;5;2;6
1480357164.5;22;37;16;10;32;24;38;26;32;27;-31;63;51;21;29;-3;23;0;5;3;6;6;5;5;4;3;6;4;0;6;0;5;2;6
1480357164.51;22;50;28;8;36;30;48;40;47;34;-14;63;70;21;41;1;31;0;5;3;6;6;5;5;4;3;6;4;0;6;0;5;2;6
1480357164.52;22;52;20;0;38;35;56;59;46;39;-15;63;71;21;31;0;43;0;5;3;6;6;5;5;4;3;6;4;0;6;0;5;5;6
1480357164.52;22;50;22;-2;43;38;58;60;33;33;-18;63;72;21;30;0;55;0;5;3;6;6;5;5;4;3;6;4;0;6;0;5;5;6
1480357164.53;22;56;25;1;44;40;48;35;30;32;-14;63;68;21;37;2;62;0;5;3;6;6;5;5;4;3;6;4;0;6;0;5;5;6
1480357164.54;22;59;35;0;43;34;39;5;37;31;-10;63;63;21;35;4;61;0;5;3;6;6;5;5;4;3;6;4;0;6;0;5;5;6
1480357164.55;22;57;41;-4;43;26;36;1;27;20;-9;63;53;21;27;4;61;0;5;3;6;6;5;5;4;3;6;4;0;6;0;5;5;6
1480357164.55;22;57;41;-4;43;26;36;1;27;20;-9;63;53;21;27;4;61;0;5;3;6;6;5;5;4;3;6;4;0;6;0;5;5;6
1480357164.56;22;59;23;2;29;26;25;18;7;7;-16;63;36;21;25;2;59;0;5;3;6;6;5;5;4;3;6;4;0;6;0;5;5;6
1480357164.56;22;59;36;11;18;21;8;25;13;0;-19;63;41;21;38;15;57;0;5;3;6;6;5;5;4;3;6;4;0;6;0;5;5;6
1480357164.57;22;59;51;13;23;5;4;16;34;-3;-21;63;65;21;48;34;57;0;5;3;6;6;5;5;4;3;6;4;0;6;0;5;5;6
1480357164.58;22;55;39;14;25;-4;11;4;31;-7;-26;63;61;21;42;25;54;0;5;3;6;6;5;5;4;3;6;4;0;6;0;5;5;6
1480357164.59;22;52;36;16;22;3;21;4;25;-3;-25;63;44;21;33;18;51;0;5;3;6;6;5;5;4;3;6;4;0;6;0;5;5;6
1480357164.59;22;44;38;10;31;8;33;12;36;3;-24;63;53;21;36;24;45;0;5;3;6;6;5;5;4;3;6;4;0;6;0;5;5;6
1480357164.6;22;44;38;10;31;8;33;12;36;3;-24;63;53;21;36;24;45;0;5;3;6;6;5;5;4;3;6;4;0;6;0;5;5;6
1480357164.6;22;27;35;0;34;0;34;20;30;-7;-25;81;59;21;42;17;30;0;5;3;6;6;5;5;4;3;6;4;3;6;0;5;5;6
1480357164.61;22;28;24;2;35;-2;34;35;27;-10;-31;82;48;21;41;17;30;0;5;3;6;6;5;5;4;3;6;4;5;6;0;5;5;6
1480357164.62;22;34;26;7;40;11;40;28;37;-3;-27;83;48;21;40;24;37;0;5;3;6;6;5;5;4;3;6;4;4;6;0;5;5;6
1480357164.62;22;32;32;-7;32;16;33;-2;22;-4;-27;84;49;21;34;10;30;0;5;3;6;6;5;5;4;3;6;4;6;6;0;5;5;6
1480357164.63;22;29;11;-23;9;11;8;-7;-6;-4;-42;85;34;21;17;-9;26;0;5;3;6;6;5;5;4;3;6;4;3;6;0;5;5;6
1480357164.64;22;29;11;-23;9;11;8;-7;-6;-4;-42;85;34;21;17;-9;26;0;5;3;6;6;5;5;4;3;6;4;3;6;0;5;5;6
1480357164.64;22;20;5;-24;-9;4;-9;13;-9;-2;-55;86;19;21;0;-8;21;0;5;3;6;6;5;5;4;3;6;4;5;6;0;5;5;6
1480357164.65;22;14;9;-11;-6;6;-3;30;-4;-6;-65;87;22;21;9;7;6;0;5;3;6;6;5;5;4;3;6;4;4;6;0;5;5;6
1480357164.66;22;28;16;-1;17;17;19;48;4;-4;-56;88;38;21;32;26;19;0;5;3;6;6;5;5;4;3;6;4;6;6;0;5;5;6
1480357164.66;22;43;33;0;33;26;34;62;23;13;-32;89;51;21;36;36;50;0;5;3;6;6;5;5;4;3;6;4;3;6;0;5;5;6
1480357164.67;22;45;31;9;30;33;32;48;16;29;-23;90;57;21;27;29;57;0;5;3;6;6;5;5;4;3;6;4;5;6;0;5;5;6
1480357164.68;22;55;36;13;28;32;32;27;-5;34;-18;91;59;21;26;26;55;0;5;3;6;6;5;5;4;3;6;4;4;6;0;5;5;6
1480357164.69;22;55;36;13;28;32;32;27;-5;34;-18;91;59;21;26;26;55;0;5;3;6;6;5;5;4;3;6;4;4;6;0;5;5;6
1480357164.69;22;57;41;5;29;31;36;24;-3;25;-15;92;53;21;28;27;58;0;5;3;6;6;5;5;4;3;6;4;6;6;0;5;5;6
1480357164.7;22;44;32;10;22;30;30;29;2;18;-21;93;44;21;26;13;44;0;5;3;6;6;5;5;4;3;6;4;3;6;0;5;5;6
1480357164.71;22;42;30;17;18;22;26;39;-5;17;-20;94;38;21;23;2;31;0;5;3;6;6;5;5;4;3;6;4;5;6;0;5;5;6
1480357164.71;22;63;28;10;30;34;32;61;-1;24;-4;95;49;21;29;12;46;0;5;3;6;6;5;5;4;3;6;4;4;6;0;5;5;6
1480357164.72;22;82;42;14;33;50;35;71;7;37;10;96;57;21;46;26;69;0;5;3;6;6;5;5;4;3;6;4;6;6;0;5;5;6
1480357164.73;22;73;38;32;21;45;26;57;0;35;1;97;47;21;48;31;63;0;5;3;6;6;5;5;4;3;6;4;3;6;0;5;5;6
1480357164.73;23;56;16;36;21;25;14;47;1;20;-23;98;45;21;51;38;42;0;5;3;6;6;5;5;4;3;6;4;5;6;0;5;5;6
1480357164.74;23;56;16;36;21;25;14;47;1;20;-23;98;45;21;51;38;42;0;5;3;6;6;5;5;4;3;6;4;5;6;0;5;5;6
1480357164.75;23;50;20;31;18;5;-1;53;12;3;-35;99;55;21;59;46;27;0;5;3;6;6;5;5;4;3;6;4;4;6;0;5;5;6
1480357164.75;22;56;28;34;3;-5;-4;57;7;-1;-27;100;59;21;47;45;30;0;5;3;6;6;5;5;4;3;6;4;6;6;0;5;5;6
1480357164.76;23;68;41;30;10;7;19;58;-3;14;-12;101;55;21;36;37;44;0;5;3;6;6;5;5;4;3;6;4;3;6;0;5;5;6
1480357164.77;22;75;55;26;33;29;37;59;10;28;-1;102;59;21;49;37;59;0;5;3;6;6;5;5;4;3;6;4;5;6;0;5;5;6
1480357164.77;22;70;52;34;41;34;36;52;29;22;9;103;69;21;60;37;65;0;5;3;6;6;5;5;4;3;6;4;4;6;0;5;5;6
1480357164.78;23;59;53;42;32;21;41;45;31;7;10;104;68;21;61;45;51;0;5;3;6;6;5;5;4;3;6;4;6;6;0;5;5;6
1480357164.79;23;59;53;42;32;21;41;45;31;7;10;104;68;21;61;45;51;0;5;3;6;6;5;5;4;3;6;4;6;6;0;5;5;6
1480357164.79;22;52;44;44;38;6;52;58;33;8;-1;105;67;21;72;55;34;0;5;3;6;6;5;5;4;3;6;4;3;6;0;5;5;6
1480357164.8;22;48;36;42;53;7;54;79;36;14;-6;106;76;22;70;49;27;0;5;3;6;6;5;5;4;3;6;4;5;6;0;5;5;6
1480357164.81;22;50;45;35;59;21;54;88;28;12;5;107;87;21;57;44;29;0;5;3;6;6;5;5;4;3;6;4;4;6;0;5;5;6
1480357164.81;22;64;57;30;65;29;65;97;28;4;18;108;86;21;63;48;36;0;5;3;6;6;5;5;4;3;6;4;6;6;0;5;5;6
1480357164.82;22;64;62;31;56;29;59;103;25;0;14;109;75;22;64;46;35;0;5;3;6;6;5;5;4;3;6;4;3;6;0;5;5;6
1480357164.83;22;64;62;31;56;29;59;103;25;0;14;109;75;22;64;46;35;0;5;3;6;6;5;5;4;3;6;4;3;6;0;5;5;6
1480357164.83;22;43;35;24;23;24;30;78;8;-2;-7;110;56;21;43;30;26;0;5;3;6;6;5;5;4;3;6;4;5;6;0;5;5;6
1480357164.84;22;40;18;18;8;29;21;54;-2;-5;-11;111;44;21;29;28;29;0;5;3;6;6;5;5;4;3;6;4;4;6;0;5;5;6
1480357164.85;22;58;45;28;33;50;43;68;-4;1;13;112;52;21;27;44;51;0;5;3;6;6;5;5;4;3;6;4;6;6;0;5;5;6
1480357164.86;22;72;69;39;49;53;48;94;-3;6;20;113;64;21;33;57;66;0;5;3;6;6;5;5;4;3;6;4;3;6;0;5;5;6
1480357164.86;22;78;68;35;35;34;30;99;6;0;6;114;60;21;49;62;57;0;5;3;6;6;5;5;4;3;6;4;5;6;0;5;5;6
1480357164.87;22;69;40;33;28;30;31;100;11;-2;-4;115;61;21;55;59;41;0;5;3;6;6;5;5;4;3;6;4;4;6;0;5;5;6
1480357164.88;23;48;23;36;25;36;33;97;1;-1;-12;116;61;21;39;52;34;0;5;3;6;6;5;5;4;3;6;4;6;6;0;5;5;6
1480357164.88;23;48;23;36;25;36;33;97;1;-1;-12;116;61;21;39;52;34;0;5;3;6;6;5;5;4;3;6;4;6;6;0;5;5;6
1480357164.89;23;45;26;26;7;29;13;71;-5;-7;-22;117;41;21;27;48;29;0;5;3;6;6;5;5;4;3;6;4;3;6;0;5;5;6
1480357164.89;23;65;29;23;-1;36;15;60;2;-2;-15;118;31;21;33;57;36;0;5;3;6;6;5;5;4;3;6;4;5;6;0;5;5;6
1480357164.9;23;72;47;42;12;62;36;91;2;13;2;119;46;21;33;57;53;0;5;3;6;6;5;5;4;3;6;4;4;6;0;5;5;6
1480357164.91;23;64;48;54;29;74;39;130;-3;14;-2;120;59;21;28;39;58;0;5;3;6;6;5;5;4;3;6;4;6;6;0;5;5;6
1480357164.92;23;61;43;53;36;69;46;132;6;13;-2;121;60;21;33;28;55;0;5;3;6;6;5;5;4;3;6;4;3;6;0;5;5;6
1480357164.92;23;64;53;45;35;52;56;95;9;12;21;122;61;21;33;17;51;0;5;3;6;6;5;5;4;3;6;4;5;6;0;5;5;6
1480357164.93;23;64;35;37;31;33;46;62;1;2;21;123;57;21;24;-7;46;0;5;3;6;6;5;5;4;3;6;4;4;6;0;5;5;6
1480357164.94;23;64;35;37;31;33;46;62;1;2;21;123;57;21;24;-7;46;0;5;3;6;6;5;5;4;3;6;4;4;6;0;5;5;6
1480357164.94;23;53;21;32;32;25;39;53;10;-10;7;124;58;21;20;-26;37;0;5;3;6;6;5;5;4;3;6;4;6;6;0;5;5;6
1480357164.95;23;52;25;42;41;31;57;64;34;-16;17;125;73;21;34;-32;33;0;5;3;6;6;5;5;4;3;6;4;3;6;0;5;5;6
1480357164.96;23;60;22;52;42;30;56;83;40;-26;28;126;77;21;51;-37;37;0;5;3;6;6;5;5;4;3;6;4;5;6;0;5;5;6
1480357164.96;23;51;18;54;25;11;29;90;33;-35;20;127;60;21;53;-34;28;0;5;3;6;6;5;5;4;3;6;4;4;6;0;5;5;6
1480357164.97;23;32;-4;58;3;-3;5;71;28;-32;7;244;42;21;40;-35;11;0;5;3;6;6;5;5;4;3;6;4;6;6;0;5;5;6
1480357164.98;23;17;-27;57;-12;-10;-7;50;19;-40;-2;244;26;21;28;-49;3;0;6;3;6;6;5;5;4;3;6;4;6;6;0;5;5;6
1480357164.98;23;17;-27;57;-12;-10;-7;50;19;-40;-2;244;26;21;28;-49;3;0;6;3;6;6;5;5;4;3;6;4;6;6;0;5;5;6
1480357164.99;23;23;-18;56;6;1;16;56;22;-40;6;244;34;21;43;-48;21;0;6;3;6;6;5;5;4;3;6;4;6;6;0;5;5;6
1480357165.0;23;49;11;59;47;28;55;77;44;-17;35;244;73;21;66;-30;49;0;6;3;6;6;5;5;4;3;6;4;6;6;0;5;5;6
1480357165.0;23;65;30;60;64;37;68;88;52;-2;50;244;93;21;60;-26;53;0;6;3;6;6;5;5;4;3;6;4;6;6;0;5;5;6
1480357165.01;23;61;16;56;46;36;62;91;39;2;27;244;84;21;38;-36;43;0;6;3;6;6;5;5;4;3;6;4;6;6;0;5;5;6
1480357165.02;23;54;1;48;31;47;53;90;31;3;13;244;79;21;30;-33;38;0;6;3;6;6;5;5;4;3;6;4;6;6;0;5;5;6
1480357165.03;23;56;-5;54;29;54;41;89;32;-3;17;244;76;21;32;-24;36;0;6;3;6;6;5;5;4;3;6;4;6;6;0;5;3;6
1480357165.03;23;56;-5;54;29;54;41;89;32;-3;17;244;76;21;32;-24;36;0;6;3;6;6;5;5;4;3;6;4;6;6;0;5;3;6
1480357165.04;23;58;-11;58;25;47;36;84;30;-4;11;244;66;21;34;-28;36;0;6;3;6;6;5;5;4;3;6;4;6;6;0;5;3;6
1480357165.05;23;56;2;42;24;48;31;77;22;-3;9;244;49;21;29;-36;33;0;6;3;6;6;5;5;4;3;6;4;6;6;0;5;3;6
1480357165.05;23;58;11;44;31;60;32;86;25;2;19;244;55;21;30;-26;37;0;6;3;6;6;5;5;4;3;6;4;6;6;0;5;3;6
1480357165.06;23;62;20;67;34;63;47;115;35;14;25;244;71;21;50;-2;49;0;6;3;6;6;5;5;4;3;6;4;6;6;0;5;3;6
1480357165.07;23;64;17;69;25;60;45;127;32;12;17;244;47;21;50;6;55;0;6;3;6;6;5;5;4;3;6;4;6;6;0;5;3;6
1480357165.07;23;63;1;59;21;61;25;109;25;1;11;244;25;21;35;-6;50;0;6;3;6;6;5;5;4;3;6;4;6;6;0;5;3;6
1480357165.08;23;63;1;59;21;61;25;109;25;1;11;244;25;21;35;-6;50;0;6;3;6;6;5;5;4;3;6;4;6;6;0;5;3;6
1480357165.09;23;63;12;61;21;62;21;83;30;4;18;244;48;21;37;-6;51;0;6;3;6;6;5;5;4;3;6;4;6;6;0;5;3;6
1480357165.09;23;63;18;51;24;61;39;65;31;4;17;244;70;21;44;0;56;0;6;3;6;6;5;5;4;3;6;4;6;6;0;5;3;6
1480357165.1;23;66;16;30;36;68;60;57;30;-2;23;244;60;21;34;-15;59;0;6;3;6;6;5;5;4;3;6;4;6;6;0;5;3;6
1480357165.11;23;68;22;25;50;91;78;73;27;12;62;16;49;21;18;-32;74;0;6;3;6;6;5;5;4;3;6;4;0;6;0;5;3;6
1480357165.11;23;75;25;35;71;107;110;103;11;35;120;17;50;22;3;-32;109;0;6;3;6;6;5;5;4;3;6;4;0;6;0;5;3;6
1480357165.12;23;89;52;38;96;114;159;109;7;42;183;18;51;21;-4;-28;152;0;6;3;6;6;5;5;4;3;6;4;0;6;0;5;3;6
1480357165.13;23;89;52;38;96;114;159;109;7;42;183;18;51;21;-4;-28;152;0;6;3;6;6;5;5;4;3;6;4;0;6;0;5;3;6
1480357165.13;23;111;85;32;127;139;211;93;28;51;263;19;60;21;16;-19;212;0;6;3;6;6;5;5;4;3;6;4;0;6;0;5;3;6
1480357165.14;23;137;112;38;169;179;255;88;35;74;349;20;80;21;32;-7;273;0;6;3;6;6;5;5;4;3;6;4;0;6;0;5;3;6
1480357165.15;23;153;133;49;184;212;273;91;23;95;391;21;84;21;29;2;308;0;6;3;6;6;5;5;4;3;6;4;0;6;0;5;3;6
1480357165.15;23;155;129;43;165;224;254;105;26;103;383;22;67;21;30;9;315;0;6;3;6;6;5;5;4;3;6;4;0;6;0;5;3;6
1480357165.16;22;153;130;32;152;214;233;120;32;96;377;23;60;21;36;15;314;0;6;3;6;6;5;5;4;3;6;4;0;6;0;5;3;6
1480357165.17;22;154;127;32;161;210;243;111;29;92;393;24;68;21;37;16;318;0;6;3;6;6;5;5;4;3;6;4;0;6;0;5;3;6
1480357165.17;22;158;130;32;179;219;272;88;34;96;410;25;74;21;38;17;323;0;6;3;6;6;5;5;4;3;6;4;0;6;0;5;3;6
1480357165.18;22;158;130;32;179;219;272;88;34;96;410;25;74;21;38;17;323;0;6;3;6;6;5;5;4;3;6;4;0;6;0;5;3;6
1480357165.19;22;157;144;20;175;210;260;75;26;91;395;26;60;21;35;13;317;0;6;3;6;6;5;5;4;3;6;4;0;6;0;5;3;6
1480357165.19;22;162;136;9;150;207;220;79;-13;96;371;27;34;21;13;1;317;0;6;3;6;6;5;5;4;3;6;4;0;6;0;5;3;6
1480357165.2;22;175;146;10;154;234;238;87;-26;123;386;28;35;21;-1;0;331;0;6;3;6;6;5;5;4;3;6;4;0;6;0;5;3;6
1480357165.21;22;171;147;9;171;241;270;90;-1;127;392;29;56;21;-2;1;326;0;6;3;6;6;5;5;4;3;6;4;0;6;0;5;3;6
1480357165.22;22;148;115;-1;162;224;251;94;-1;100;363;30;57;21;1;-3;303;0;6;3;6;6;5;5;4;3;6;4;0;6;0;5;3;6
1480357165.22;22;147;119;0;158;218;242;109;-6;88;362;31;51;21;21;1;296;0;6;3;6;6;5;5;4;3;6;4;0;6;0;5;3;6
1480357165.23;22;158;143;10;165;220;259;111;11;94;372;32;65;21;40;5;306;0;6;3;6;6;5;5;4;3;6;4;0;6;0;5;3;6
1480357165.24;22;151;146;4;159;214;246;84;7;93;357;33;66;21;33;1;301;0;6;3;6;6;5;5;4;3;6;4;0;6;0;5;3;6
1480357165.24;22;151;146;4;159;214;246;84;7;93;357;33;66;21;33;1;301;0;6;3;6;6;5;5;4;3;6;4;0;6;0;5;3;6
1480357165.25;22;147;142;-2;166;199;243;60;12;82;352;34;49;21;27;7;287;0;6;3;6;6;5;5;4;3;6;4;0;6;0;5;3;6
1480357165.26;22;155;144;15;168;195;252;63;40;80;358;35;45;21;37;13;283;0;6;3;6;6;5;5;4;3;6;4;0;6;0;5;3;6
1480357165.26;22;147;144;19;145;191;228;76;17;79;340;36;54;21;31;8;271;0;6;3;6;6;5;5;4;3;6;4;0;6;0;5;3;6
1480357165.27;22;145;131;10;146;175;217;87;-14;67;311;37;68;21;27;12;249;0;6;3;6;6;5;5;4;3;6;4;0;6;0;5;3;6
1480357165.28;22;149;133;5;148;159;218;99;17;56;290;38;64;21;46;21;223;0;6;3;6;6;5;5;4;3;6;4;0;6;0;5;3;6
1480357165.28;22;149;133;5;148;159;218;99;17;56;290;38;64;21;46;21;223;0;6;3;6;6;5;5;4;3;6;4;0;6;0;5;3;6
1480357165.29;22;124;119;3;119;163;185;113;32;56;250;39;48;21;53;18;194;0;6;3;6;6;5;5;4;3;6;4;0;6;0;5;3;6
1480357165.3;22;99;84;10;98;154;146;121;14;48;194;40;49;21;38;20;161;0;6;3;6;6;5;5;4;3;6;4;0;6;0;5;3;6
1480357165.3;22;103;80;14;79;127;122;111;14;29;146;41;47;21;28;31;136;0;6;3;6;6;5;5;4;3;6;4;0;6;0;5;3;6
1480357165.31;22;109;81;4;60;123;108;96;15;31;114;42;37;21;32;19;125;0;6;3;6;6;5;5;4;3;6;4;0;6;0;5;3;6
1480357165.32;22;93;64;-9;61;125;88;87;-2;38;93;43;37;21;27;0;103;0;6;3;6;6;5;5;4;3;6;4;0;6;0;5;3;6
1480357165.33;22;72;39;-11;51;108;63;90;-5;18;56;44;43;21;22;12;69;0;6;3;6;6;5;5;4;3;6;4;0;6;0;5;3;6
1480357165.33;22;72;39;-11;51;108;63;90;-5;18;56;44;43;21;22;12;69;0;6;3;6;6;5;5;4;3;6;4;0;6;0;5;3;6
1480357165.34;22;58;29;2;38;93;59;112;15;2;17;45;47;21;42;29;46;0;6;3;6;6;5;5;4;3;6;4;0;6;0;5;3;6
1480357165.34;22;50;40;16;45;79;60;139;35;-8;2;46;55;21;65;38;26;0;6;3;6;6;5;5;4;3;6;4;0;6;0;5;3;6
1480357165.35;22;53;34;13;45;66;43;143;41;-17;-10;47;65;21;70;43;9;0;6;3;6;6;5;5;4;3;6;4;0;6;0;5;3;6
1480357165.36;22;62;32;-1;28;59;30;118;36;-15;-30;48;63;21;64;39;9;0;6;3;6;6;5;5;4;3;6;4;0;6;0;5;3;6
1480357165.37;22;60;40;0;20;54;29;104;33;-11;-41;49;53;21;51;33;7;0;6;3;6;6;5;5;4;3;6;4;0;6;0;5;3;6
1480357165.37;22;38;21;3;9;38;12;111;23;-25;-56;50;37;21;45;32;-17;0;6;3;6;6;5;5;4;3;6;4;0;6;0;5;3;6
1480357165.38;22;18;9;-4;-21;13;-20;115;13;-40;-86;51;17;21;50;33;-50;0;6;3;6;6;5;5;4;3;6;4;0;6;0;5;3;6
1480357165.38;22;18;9;-4;-21;13;-20;115;13;-40;-86;51;17;21;50;33;-50;0;6;3;6;6;5;5;4;3;6;4;0;6;0;5;3;6
1480357165.39;22;27;10;-7;-22;0;-27;115;24;-36;-101;52;21;21;49;31;-57;0;6;3;6;6;5;5;4;3;6;4;0;6;0;5;3;6
1480357165.4;22;38;19;-1;6;11;-7;122;35;-36;-89;53;41;21;45;32;-43;0;6;3;6;6;5;5;4;3;6;4;0;6;0;5;3;6
1480357165.41;22;28;23;-7;10;16;0;118;32;-34;-84;54;45;21;48;31;-47;0;6;3;6;6;5;5;4;3;6;4;0;6;0;5;3;6
1480357165.41;22;19;-8;-16;-3;12;-11;100;29;-24;-104;55;32;21;45;28;-61;0;6;3;6;6;5;5;4;3;6;4;0;6;0;5;3;6
1480357165.42;22;24;-9;-19;-6;19;-6;91;28;-29;-107;56;36;22;43;29;-52;0;6;3;6;6;5;5;4;3;6;4;0;6;0;5;3;6
1480357165.43;22;31;19;-17;8;38;12;97;32;-29;-86;57;54;21;58;36;-29;0;6;3;6;6;5;5;4;3;6;4;0;6;0;5;3;6
1480357165.43;22;37;31;-4;17;46;11;101;47;-5;-77;58;64;21;69;43;-26;0;6;3;6;6;5;5;4;3;6;4;0;6;0;5;3;6
1480357165.44;22;37;31;-4;17;46;11;101;47;-5;-77;58;64;21;69;43;-26;0;6;3;6;6;5;5;4;3;6;4;0;6;0;5;3;6
1480357165.45;22;26;18;-1;5;42;0;90;48;-4;-97;59;54;21;64;39;-42;0;6;3;6;6;5;5;4;3;6;4;0;6;0;5;3;6
1480357165.45;22;0;-28;-19;-25;27;-20;66;32;-39;-133;60;32;21;60;28;-68;0;6;3;6;6;5;5;4;3;6;4;0;6;0;5;3;6
1480357165.46;22;-15;-42;-27;-41;11;-35;61;28;-57;-142;61;10;21;61;30;-95;0;6;3;6;6;5;5;4;3;6;4;0;6;0;5;3;6
1480357165.47;22;-6;-17;-20;-36;11;-34;87;29;-40;-129;62;4;21;58;46;-93;0;6;3;6;6;5;5;4;3;6;4;0;6;0;5;3;6
1480357165.47;22;3;-2;-20;-26;20;-31;103;33;-26;-121;63;17;21;62;55;-74;0;6;3;6;6;5;5;4;3;6;4;0;6;0;5;3;6
1480357165.48;22;3;-2;-20;-26;20;-31;103;33;-26;-121;63;17;21;62;55;-74;0;6;3;6;6;5;5;4;3;6;4;0;6;0;5;3;6
1480357165.49;22;4;7;-23;-10;23;-16;82;49;-30;-110;63;33;21;78;55;-63;0;6;3;6;6;5;5;4;3;6;4;0;6;0;5;3;6
1480357165.49;22;4;1;-21;2;16;0;53;62;-42;-100;63;39;21;87;54;-62;0;6;3;6;6;5;5;4;3;6;4;0;6;0;5;3;6
1480357165.5;22;-2;-1;-25;-8;15;-14;57;62;-47;-107;63;36;21;89;62;-69;0;6;3;6;6;5;5;4;3;6;4;0;6;0;5;3;6
1480357165.51;22;-18;0;-27;-29;27;-34;85;53;-36;-117;63;29;21;88;65;-69;0;6;3;6;6;5;5;4;3;6;4;0;6;0;5;3;6
1480357165.52;22;-31;-5;-29;-24;35;-19;99;37;-25;-106;63;25;21;73;51;-66;0;6;3;6;6;5;5;5;3;6;4;0;6;0;5;3;6
1480357165.52;22;-28;5;-33;3;36;5;99;47;-23;-88;63;28;21;61;47;-61;0;6;3;6;6;5;5;5;3;6;4;0;6;0;5;3;6
1480357165.53;22;-34;-3;-33;4;33;-2;86;61;-23;-93;63;35;21;62;46;-57;0;6;3;6;6;5;5;5;3;6;4;0;6;0;5;3;6
1480357165.54;22;-49;-13;-34;-25;25;-25;60;40;-32;-113;63;29;21;52;34;-63;0;6;3;6;6;5;5;5;3;6;4;0;6;0;5;3;6
1480357165.54;22;-49;-13;-34;-25;25;-25;60;40;-32;-113;63;29;21;52;34;-63;0;6;3;6;6;5;5;5;3;6;4;0;6;0;5;3;6
1480357165.55;22;-36;0;-41;-28;27;-30;50;25;-33;-111;63;24;21;40;36;-60;0;6;3;6;6;5;5;5;3;6;4;0;6;0;5;3;6
1480357165.56;22;-19;14;-44;-5;32;-13;60;38;-24;-91;63;27;21;39;41;-47;0;6;3;6;6;5;5;5;3;6;4;0;5;0;5;3;6
1480357165.56;22;-28;23;-40;-1;21;-1;67;36;-29;-87;63;27;21;33;33;-52;0;6;3;6;6;5;5;5;3;6;4;0;5;0;5;3;6
1480357165.57;22;-35;21;-32;0;22;-3;86;30;-31;-94;63;33;21;43;39;-55;0;6;3;6;6;5;5;5;3;6;4;0;5;0;5;3;6
1480357165.58;23;-29;20;-33;-2;24;-18;94;34;-29;-96;63;34;21;53;53;-45;0;6;3;6;6;5;5;5;3;6;4;0;5;0;5;3;6
1480357165.59;23;-31;7;-36;-26;10;-35;67;24;-32;-103;63;10;21;36;47;-52;0;6;3;6;6;5;5;5;3;6;4;0;5;0;5;3;6
1480357165.59;23;-31;7;-36;-26;10;-35;67;24;-32;-103;63;10;21;36;47;-52;0;6;3;6;6;5;5;5;3;6;4;0;5;0;5;3;6
1480357165.6;23;-30;0;-31;-37;10;-39;49;20;-34;-103;63;0;21;36;49;-57;0;6;3;6;6;5;5;5;3;6;4;0;5;0;5;3;6
1480357165.61;23;-27;25;-32;-16;18;-31;51;41;-35;-88;63;20;21;62;65;-51;0;6;3;6;6;5;5;5;3;6;4;0;5;0;5;3;6
1480357165.61;23;-30;24;-34;0;19;-14;54;60;-32;-86;63;33;21;68;59;-51;0;6;3;6;6;5;5;5;3;6;4;0;5;0;5;3;6
1480357165.62;23;-33;17;-32;0;14;1;60;55;-26;-85;81;32;21;48;38;-45;0;6;3;6;6;5;5;5;3;6;4;3;5;0;5;3;6
1480357165.63;23;-31;20;-44;-9;12;-13;69;38;-27;-83;82;19;21;33;33;-45;0;6;3;6;6;5;5;5;3;6;4;5;5;0;5;3;6
1480357165.63;23;-29;5;-53;-14;20;-24;81;30;-30;-92;83;3;21;31;36;-58;0;6;3;6;6;5;5;5;3;6;4;4;5;0;5;3;6
1480357165.64;23;-39;2;-41;-6;13;-14;94;35;-33;-95;84;10;21;33;37;-64;0;6;3;6;6;5;5;5;3;6;4;6;5;0;5;3;6
1480357165.65;23;-39;2;-41;-6;13;-14;94;35;-33;-95;84;10;21;33;37;-64;0;6;3;6;6;5;5;5;3;6;4;6;5;0;5;3;6
1480357165.65;23;-47;4;-26;-1;1;-12;90;40;-35;-96;85;34;21;35;45;-58;0;6;3;6;6;5;5;5;3;6;4;3;5;0;5;3;6
1480357165.66;22;-44;6;-25;-7;14;-17;72;40;-24;-105;86;35;21;37;52;-53;0;6;3;6;6;5;5;5;3;6;4;5;5;0;5;3;6
1480357165.67;23;-37;14;-41;-9;37;-18;62;29;-10;-105;87;13;21;33;37;-45;0;6;3;6;6;5;5;5;3;6;4;4;5;0;5;3;6
1480357165.67;23;-17;22;-40;1;39;-8;73;29;-2;-86;88;14;21;31;26;-29;0;6;3;6;6;5;5;5;3;6;4;6;5;0;5;3;6
1480357165.68;23;-4;36;-23;12;42;4;92;42;3;-77;89;30;21;36;40;-23;0;6;3;6;6;5;5;5;3;6;4;3;5;0;5;3;6
1480357165.69;23;-20;24;-28;4;39;-2;99;40;-6;-87;90;26;21;27;41;-28;0;6;3;6;6;5;5;5;3;6;4;5;5;0;5;3;6
1480357165.69;23;-38;9;-48;-20;26;-25;94;27;-17;-91;91;2;22;14;24;-38;0;6;3;6;6;5;5;5;3;6;4;4;5;0;5;3;6
1480357165.7;23;-38;9;-48;-20;26;-25;94;27;-17;-91;91;2;22;14;24;-38;0;6;3;6;6;5;5;5;3;6;4;4;5;0;5;3;6
1480357165.71;23;-31;24;-44;-30;30;-36;79;26;-6;-88;92;-10;21;20;28;-36;0;6;3;6;6;5;5;5;3;6;4;6;5;0;5;3;6
1480357165.71;23;-22;15;-28;-23;37;-30;65;29;8;-94;93;0;22;26;50;-28;0;6;3;6;6;5;5;5;3;6;4;3;5;0;5;3;6
1480357165.72;23;-30;0;-22;-30;31;-30;68;31;4;-96;94;-1;21;28;63;-32;0;6;3;6;6;5;5;5;3;6;4;5;5;0;5;3;6
1480357165.73;22;-35;-4;-24;-44;30;-44;85;23;-5;-94;95;-20;21;28;59;-36;0;6;3;6;6;5;5;5;3;6;4;4;5;0;5;3;6
1480357165.74;22;-38;-2;-33;-45;30;-60;90;6;-9;-104;96;-35;21;19;52;-34;0;6;3;6;6;5;5;5;3;6;4;6;5;0;5;3;6
1480357165.74;22;-32;15;-35;-39;24;-55;73;7;-10;-99;97;-24;21;18;55;-36;0;6;3;6;6;5;5;5;3;6;4;3;5;0;5;3;6
1480357165.75;22;-32;15;-35;-39;24;-55;73;7;-10;-99;97;-24;21;18;55;-36;0;6;3;6;6;5;5;5;3;6;4;3;5;0;5;3;6
1480357165.76;22;-15;26;-15;-19;34;-30;70;32;8;-75;98;0;21;35;62;-24;0;6;3;6;6;5;5;5;3;6;4;5;5;0;5;3;6
1480357165.76;22;-8;38;-11;3;47;-10;82;42;19;-60;99;14;21;37;57;-13;0;6;3;6;6;5;5;5;3;6;4;4;5;0;5;3;6
1480357165.77;22;-9;44;-22;14;44;0;89;36;8;-55;100;22;21;32;59;-19;0;6;3;6;6;5;5;5;3;6;4;6;5;0;5;3;6
1480357165.78;22;-3;47;-11;22;37;8;96;44;1;-53;101;27;21;46;71;-15;0;6;3;6;6;5;5;5;3;6;4;3;5;0;5;3;6
1480357165.78;22;2;58;0;24;33;5;90;53;2;-50;102;24;21;51;77;-9;0;6;3;6;6;5;5;5;3;6;4;5;5;0;5;3;6
1480357165.79;22;-3;48;2;21;27;3;72;59;-1;-55;103;32;21;50;80;-23;0;6;3;6;6;5;5;5;3;6;4;4;5;0;5;3;6
1480357165.8;23;-4;48;14;30;22;14;63;81;-6;-56;104;56;21;76;95;-33;0;6;3;6;6;5;5;5;3;6;4;6;5;0;5;3;6
1480357165.81;23;-4;48;14;30;22;14;63;81;-6;-56;104;56;21;76;95;-33;0;6;3;6;6;5;5;5;3;6;4;6;5;0;5;3;6
1480357165.81;23;-7;51;22;35;22;19;70;95;-6;-47;105;64;21;95;99;-27;0;6;3;6;6;5;5;5;3;6;4;3;5;0;5;3;6
1480357165.82;23;-18;27;11;14;20;1;75;78;-7;-59;106;47;21;76;75;-27;0;6;3;6;6;5;5;5;3;6;4;5;5;0;5;3;6
1480357165.83;23;-16;19;-1;-13;10;-14;83;46;-9;-68;107;11;21;45;45;-35;0;6;3;6;6;5;5;5;3;6;4;4;5;0;5;3;6
1480357165.83;22;0;23;0;-7;18;-2;99;41;5;-52;108;-3;21;33;27;-26;0;6;3;6;6;5;5;5;3;6;4;6;5;0;5;3;6
1480357165.84;23;-4;21;9;12;40;9;102;53;16;-41;109;15;21;43;18;-17;0;6;3;6;6;5;5;5;3;6;4;3;5;0;5;3;6
1480357165.85;23;-32;9;16;12;42;5;88;60;8;-52;110;30;21;53;10;-21;0;6;3;6;6;5;5;5;3;6;4;5;5;0;5;3;6
1480357165.85;23;-46;-11;24;3;34;3;78;60;-5;-57;111;31;22;45;-9;-31;0;6;3;6;6;5;5;5;3;6;4;4;5;0;5;3;6
1480357165.86;23;-37;-12;17;-1;27;-3;74;57;-4;-52;112;22;21;31;-27;-32;0;6;3;6;6;5;5;5;3;6;4;6;5;0;5;3;6
1480357165.87;23;-37;-12;17;-1;27;-3;74;57;-4;-52;112;22;21;31;-27;-32;0;6;3;6;6;5;5;5;3;6;4;6;5;0;5;3;6
1480357165.87;23;-30;-17;6;-12;10;-23;66;53;0;-57;113;10;21;27;-41;-28;0;6;3;6;6;5;5;5;3;6;4;3;5;0;5;3;6
1480357165.88;23;-33;-25;12;-21;3;-27;54;49;-6;-58;114;7;21;26;-45;-30;0;6;3;6;6;5;5;5;3;6;4;5;5;0;5;3;6
1480357165.89;22;-26;-28;28;-18;20;-11;55;52;-5;-53;115;14;21;30;-37;-25;0;6;3;6;6;5;5;5;3;6;4;4;5;0;5;3;6
1480357165.89;22;-21;-49;34;-22;26;-17;61;53;4;-58;116;11;21;37;-33;-24;0;6;3;6;6;5;5;5;3;6;4;6;5;0;5;3;6
1480357165.9;22;-34;-52;30;-29;13;-32;60;48;0;-59;117;8;21;39;-31;-35;0;6;3;6;6;5;5;5;3;6;4;3;5;0;5;3;6
1480357165.91;22;-24;-26;37;-6;22;-16;61;63;2;-42;118;32;21;54;-17;-18;0;6;3;6;6;5;5;5;3;6;4;5;5;0;5;3;6
1480357165.91;22;4;-3;51;15;31;1;64;90;18;-27;119;57;21;75;4;2;0;6;3;6;6;5;5;5;3;6;4;4;5;0;5;3;6
1480357165.92;22;4;-3;51;15;31;1;64;90;18;-27;119;57;21;75;4;2;0;6;3;6;6;5;5;5;3;6;4;4;5;0;5;3;6
1480357165.93;22;-4;-19;46;-12;14;-21;66;82;4;-47;120;41;21;67;-4;-25;0;6;3;6;6;5;5;5;3;6;4;6;5;0;5;3;6
1480357165.93;22;-37;-62;26;-45;-4;-43;66;39;-27;-84;121;4;21;33;-31;-56;0;6;3;6;6;5;5;5;3;6;4;3;5;0;5;3;6
1480357165.94;22;-40;-58;14;-40;-6;-40;49;23;-20;-83;122;-5;21;16;-32;-42;0;6;3;6;6;5;5;5;3;6;4;5;5;0;5;3;6
1480357165.95;22;-22;-42;23;-24;9;-29;25;44;4;-56;123;9;21;27;-23;-26;0;6;3;6;6;5;5;5;3;6;4;4;5;0;5;3;6
1480357165.96;22;-9;-41;29;-12;26;-15;33;58;2;-38;124;14;21;33;-26;-24;0;6;3;6;6;5;5;5;3;6;4;6;5;0;5;3;6
1480357165.96;22;-1;-20;30;6;28;3;53;59;-3;-34;125;23;21;31;-24;-15;0;6;3;6;6;5;5;5;3;6;4;3;5;0;5;3;6
1480357165.97;22;-5;-12;30;17;24;9;50;56;5;-31;126;36;21;30;-22;-14;0;6;3;6;6;5;5;5;3;6;4;5;5;0;5;3;6
1480357165.98;22;-5;-12;30;17;24;9;50;56;5;-31;126;36;21;30;-22;-14;0;6;3;6;6;5;5;5;3;6;4;5;5;0;5;3;6
1480357165.98;22;-22;-16;27;9;29;2;46;46;1;-27;127;21;21;24;-32;-25;0;6;3;6;6;5;5;5;3;6;4;4;5;0;5;3;6
1480357165.99;23;-28;-19;28;6;25;6;62;36;-4;-30;244;1;21;24;-25;-30;0;6;3;6;6;5;5;5;3;6;4;6;5;0;5;3;6
1480357166.0;22;-13;-22;26;7;15;10;61;29;-2;-28;244;3;21;29;-13;-33;0;6;3;6;6;5;5;5;3;6;4;6;5;0;5;3;6
1480357166.01;23;-9;-20;25;1;20;3;34;39;-7;-27;244;7;21;29;-18;-32;0;6;3;6;6;5;5;5;3;6;4;6;5;0;5;3;6
