F3,F4,P7,FC6,F7,F8,T7,P8,FC5,AF4,T8,O2,O1,AF3
-25,-5,36,-44,250,-118,-49,-27,14,-112,2,8,50,-81
-11,5,34,-36,250,-101,-39,-7,35,-109,21,19,47,-63
-1,19,32,7,254,-53,-36,24,44,-74,55,49,52,-43
0,41,30,40,254,-14,-38,38,32,-47,86,65,64,-33
-5,35,36,28,254,-30,-44,38,36,-62,81,65,64,-30
-5,35,36,28,254,-30,-44,38,36,-62,81,65,64,-30
1,21,51,3,258,-60,-70,29,48,-81,53,57,65,-37
0,13,53,-13,246,-68,-92,13,40,-95,36,31,66,-52
-19,-4,46,-26,225,-78,-83,-5,28,-115,29,4,59,-65
-33,-3,42,-25,221,-82,-66,-9,25,-115,20,5,58,-71
-26,2,44,-10,229,-67,-45,-3,31,-101,27,22,62,-63
-16,7,48,1,228,-54,-26,-6,45,-91,49,28,61,-48
-8,19,38,10,222,-40,-23,2,48,-78,58,28,60,-33
-8,19,38,10,222,-40,-23,2,48,-78,58,28,60,-33
19,34,33,36,219,-11,-19,29,48,-52,66,37,62,-13
35,54,38,45,208,-7,-14,32,49,-41,71,39,68,-5
13,36,36,19,185,-33,-19,6,40,-63,53,24,72,-29
-8,15,39,3,170,-42,-17,-10,26,-75,28,14,70,-49
-3,32,50,16,178,-28,6,-6,30,-57,31,23,67,-34
8,34,46,36,186,-16,16,13,44,-41,57,37,70,-21
3,30,28,27,174,-24,-6,28,44,-49,65,37,63,-36
3,30,28,27,174,-24,-6,28,44,-49,65,37,63,-36
-10,17,21,-3,161,-37,-46,17,34,-68,44,24,40,-51
-15,1,19,-14,160,-38,-81,0,29,-72,28,16,22,-57
-14,7,16,-3,156,-28,-96,1,29,-66,35,10,23,-58
-14,6,29,14,155,-16,-96,9,28,-66,52,14,25,-49
-10,13,46,25,166,0,-93,21,36,-52,64,27,20,-34
6,29,44,38,171,13,-80,34,50,-30,72,36,10,-19
6,22,43,34,155,0,-64,34,44,-36,67,36,-12,-21
6,22,43,34,155,0,-64,34,44,-36,67,36,-12,-21
-5,4,47,10,144,-25,-45,25,26,-57,50,27,-30,-29
1,-22,45,-3,150,-32,-30,12,32,-65,38,11,-42,-29
-6,-38,43,-9,147,-29,-27,-1,40,-64,30,-4,-60,-33
-23,-41,50,-13,143,-36,-16,1,36,-67,25,-3,-69,-40
-15,-37,52,-10,151,-34,3,11,46,-64,30,-2,-66,-33
2,-21,52,-2,157,-21,13,10,56,-53,36,-2,-60,-18
2,-21,52,-2,157,-21,13,10,56,-53,36,-2,-60,-18
4,-26,61,1,152,-17,10,9,56,-55,42,4,-57,-24
-7,-36,60,-1,145,-19,3,13,46,-60,48,2,-56,-36
-4,-23,58,10,149,-4,3,21,36,-37,59,6,-50,-22
25,7,64,44,158,30,-1,33,47,-7,82,31,-33,7
46,28,61,58,152,37,-36,38,55,0,91,45,-22,9
26,5,59,34,128,12,-74,33,37,-17,75,27,-30,-14
4,-13,61,26,111,5,-71,22,23,-36,60,10,-31,-29
4,-13,61,26,111,5,-71,22,23,-36,60,10,-31,-29
1,-14,62,26,99,6,-63,5,16,-42,46,4,-26,-35
2,-21,59,18,81,0,-67,-6,0,-41,34,-5,-29,-40
7,-8,57,23,76,5,-51,8,2,-33,43,2,-31,-37
5,-14,60,26,86,13,-27,30,11,-35,64,24,-27,-30
-3,-35,65,20,93,18,-10,37,11,-42,68,35,-23,-32
-7,-33,53,17,86,16,-6,24,13,-45,54,20,-30,-44
-2,-25,43,17,87,2,2,8,16,-45,39,1,-36,-36
-2,-25,43,17,87,2,2,8,16,-45,39,1,-36,-36
12,-7,41,18,105,1,12,8,25,-32,38,-5,-32,-21
27,-4,37,28,124,18,13,18,38,-24,50,-5,-30,-19
30,-12,36,35,128,21,19,31,34,-23,57,8,-34,-13
29,4,37,27,110,13,23,36,27,-18,54,18,-32,0
37,16,39,29,100,25,24,33,33,-4,57,17,-19,6
51,30,51,49,112,35,27,39,31,10,64,21,-5,16
62,40,67,63,123,38,25,50,33,8,73,33,1,34
59,34,66,48,120,38,8,42,36,-6,69,41,2,26
59,34,66,48,120,38,8,42,36,-6,69,41,2,26
39,25,54,26,105,18,-19,24,23,-16,48,25,-1,1
40,21,55,29,102,10,-25,26,27,-16,45,8,-4,1
51,37,57,40,114,31,-18,33,46,-6,64,11,-2,8
34,28,60,32,115,31,-22,31,36,-15,57,13,2,0
14,-6,62,11,97,2,-29,24,18,-37,29,0,0,-10
22,0,65,11,86,2,-13,24,21,-39,40,-3,-2,-14
34,8,66,32,91,28,8,35,20,-25,68,8,1,-9
34,8,66,32,91,28,8,35,20,-25,68,8,1,-9
23,-3,58,34,80,23,-3,35,1,-24,59,5,1,-11
19,-7,55,23,65,12,-4,27,-5,-25,51,0,-3,-18
37,7,64,42,67,31,16,40,4,-8,64,17,-4,-9
54,34,67,58,61,43,15,60,1,6,65,34,4,5
63,42,64,44,36,34,0,61,-2,7,63,36,9,4
61,49,64,41,20,30,-3,57,1,13,62,38,4,5
37,38,65,35,28,23,-5,49,-11,6,46,40,3,-4
37,38,65,35,28,23,-5,49,-11,6,46,40,3,-4
16,-1,63,7,28,1,-28,31,-18,-28,28,19,-1,-31
23,3,50,0,23,-7,-65,17,1,-37,26,-3,-14,-28
39,25,35,21,45,7,-96,24,21,-11,35,3,-31,2
37,27,34,23,57,13,-121,32,19,-2,39,5,-34,9
10,1,36,2,39,-4,-131,15,3,-28,29,-7,-20,-12
-17,-33,38,-8,22,-20,-120,-5,-7,-49,13,-10,-10,-35
-17,-33,38,-8,22,-20,-120,-5,-7,-49,13,-10,-10,-35
-6,-17,53,8,25,-1,-100,13,-1,-25,20,3,-5,-30
25,14,64,38,40,35,-81,34,11,8,49,19,-2,-3
30,21,59,48,43,38,-66,32,16,11,61,24,-3,2
28,20,59,43,33,31,-53,42,13,0,59,27,3,-12
30,14,56,41,23,37,-50,52,6,-3,62,34,5,-11
23,14,44,29,29,31,-52,30,5,1,49,28,0,-6
36,25,49,38,56,34,-34,35,29,18,43,25,6,14
36,25,49,38,56,34,-34,35,29,18,43,25,6,14
72,59,58,70,94,68,3,76,63,50,74,55,25,52
71,75,53,61,99,64,8,83,64,50,85,74,36,47
35,30,55,22,58,19,-26,55,35,8,54,62,34,9
32,17,57,8,32,11,-63,41,20,-5,37,47,33,0
56,41,38,12,36,18,-84,36,26,15,34,32,30,12
58,47,33,7,29,6,-86,26,17,12,24,21,21,11
50,53,55,21,33,22,-74,47,8,16,39,48,34,18
50,53,55,21,33,22,-74,47,8,16,39,48,34,18
50,62,73,59,54,62,-44,88,27,43,85,90,62,38
42,63,67,66,49,66,-20,84,31,42,94,91,60,27
25,39,53,38,23,50,-17,54,5,10,65,60,44,-1
31,32,59,38,22,54,-13,53,-4,3,56,41,41,-6
43,57,58,56,33,58,-1,62,12,27,61,29,40,5
36,49,41,47,23,51,5,56,18,29,58,24,32,5
24,32,43,29,14,50,9,59,2,13,62,49,43,-11
24,32,43,29,14,50,9,59,2,13,62,49,43,-11
19,39,55,38,24,54,20,71,-1,12,74,65,55,-22
22,33,43,39,33,40,9,64,2,9,68,45,35,-17
22,28,25,12,24,15,-6,38,-2,-4,41,28,26,-10
29,34,34,1,30,19,5,25,12,1,28,32,39,-1
42,56,50,21,54,40,6,46,36,29,47,27,43,12
32,60,59,31,50,41,-17,64,27,29,67,23,43,7
9,25,68,10,31,16,-32,62,1,-4,66,50,56,-10
9,25,68,10,31,16,-32,62,1,-4,66,50,56,-10
3,2,79,-17,26,-3,-35,62,5,-25,49,67,70,-13
23,7,94,-10,33,7,-26,59,28,-20,32,47,75,0
51,40,88,17,44,27,-7,48,32,8,31,26,76,16
60,77,65,36,55,46,2,53,25,31,51,30,67,27
53,88,60,51,61,60,12,67,35,38,76,51,60,31
53,88,60,51,61,60,12,67,35,38,76,51,60,31
54,92,63,65,51,65,27,64,44,40,90,65,67,30
61,76,57,66,41,61,25,65,43,39,91,55,68,34
44,50,46,39,41,45,5,59,43,26,73,33,54,21
21,32,43,-1,38,17,-14,34,34,-2,44,23,45,-5
22,24,52,-7,30,10,-20,38,25,-12,39,27,52,-6
25,46,62,18,28,35,-14,63,27,5,62,38,62,8
25,55,64,35,33,57,-10,66,33,18,90,51,66,13
25,55,64,35,33,57,-10,66,33,18,90,51,66,13
41,58,67,45,32,63,-7,74,46,26,96,58,65,19
55,82,69,58,31,63,10,85,50,37,88,49,68,31
48,80,66,65,40,69,27,73,42,35,91,37,74,34
32,67,61,59,32,65,27,58,37,24,89,36,68,19
18,49,57,39,10,39,26,42,29,7,67,27,63,-2
18,43,64,22,8,29,41,33,27,0,54,16,81,-5
31,67,82,33,30,48,60,51,41,23,64,23,88,17
31,67,82,33,30,48,60,51,41,23,64,23,88,17
39,61,92,37,37,48,70,56,49,27,70,32,69,29
30,39,86,4,26,21,75,41,42,3,58,26,64,14
28,41,85,2,30,23,84,49,45,6,58,26,60,13
37,56,90,44,46,50,80,64,54,29,76,40,37,30
41,65,89,56,54,62,55,62,56,46,90,48,29,36
39,55,87,41,60,65,35,62,67,51,96,41,20,38
35,45,88,43,57,67,30,56,63,49,88,30,-4,43
35,45,88,43,57,67,30,56,63,49,88,30,-4,43
21,17,83,31,40,56,29,35,42,33,67,18,-21,28
-2,-21,84,2,27,45,27,21,30,15,53,3,-28,3
-5,-19,87,8,18,55,24,23,33,10,57,-6,-30,-4
5,-19,75,32,13,61,31,29,37,17,62,-2,-39,6
5,-26,66,29,13,55,50,27,32,31,57,9,-57,14
10,-17,77,23,11,53,77,27,33,31,59,13,-56,7
27,-6,90,27,5,53,95,29,35,25,63,13,-31,7
27,-6,90,27,5,53,95,29,35,25,63,13,-31,7
31,14,84,28,0,49,91,31,32,37,57,17,-23,24
29,19,80,26,3,50,92,32,31,46,50,22,-33,33
29,16,84,31,7,56,112,36,43,42,62,31,-28,26
26,21,88,36,12,61,99,37,50,43,79,42,-18,25
36,20,90,40,20,68,61,32,51,46,74,37,-26,33
36,20,90,40,20,68,61,32,51,46,74,37,-26,33
49,22,85,49,25,71,45,28,59,50,61,22,-28,34
44,11,77,50,18,65,44,19,57,47,63,18,-14,34
33,8,63,33,12,57,42,2,49,42,66,15,-10,29
32,18,56,21,15,54,47,-6,41,41,55,15,-18,24
37,14,71,34,11,54,59,11,43,39,61,29,-14,29
34,12,87,37,-3,54,71,26,40,36,81,32,-6,28
34,12,87,37,-3,54,71,26,40,36,81,32,-6,28
27,2,92,24,-4,59,86,28,38,26,85,28,2,22
30,-1,92,36,12,66,103,34,48,30,86,34,15,26
40,11,92,50,19,64,117,30,56,45,86,32,15,33
47,7,90,39,23,61,129,8,65,54,71,23,3,44
43,9,88,25,30,60,142,7,74,54,54,23,2,49
35,3,89,26,28,54,155,31,75,45,57,32,5,39
35,3,89,26,28,54,155,31,75,45,57,32,5,39
31,-7,88,38,25,56,154,37,63,34,76,36,4,27
26,0,84,41,19,62,147,27,57,33,79,29,7,26
29,1,85,37,8,62,152,27,64,40,76,27,17,33
43,11,93,53,11,72,156,35,67,43,86,41,33,42
43,18,86,65,24,81,134,33,61,36,92,49,38,38
43,18,86,65,24,81,134,33,61,36,92,49,38,38
15,-3,63,38,-4,63,84,13,43,15,72,29,11,10
-1,-13,57,15,-36,42,51,-6,33,11,51,2,-6,-6
23,-3,65,29,-15,41,57,2,39,31,49,-4,13,3
32,6,60,20,-7,36,59,-4,45,34,41,-2,27,-2
16,-7,54,-5,-22,25,51,-26,51,6,28,-6,23,-25
18,-19,63,0,-9,23,58,-23,59,-5,30,-1,24,-24
18,-19,63,0,-9,23,58,-23,59,-5,30,-1,24,-24
30,0,56,15,3,30,69,-2,49,17,42,11,26,-10
33,18,44,39,1,55,80,19,38,42,64,24,23,1
33,34,50,66,5,76,94,29,48,51,78,30,20,9
25,27,56,53,-1,57,100,12,45,36,61,14,20,-2
5,-6,54,24,-31,33,95,-7,14,11,38,-6,20,-32
-8,-10,56,19,-46,37,96,1,-4,6,40,-3,22,-40
-7,-7,64,18,-37,41,93,11,19,11,47,14,29,-29
-7,-7,64,18,-37,41,93,11,19,11,47,14,29,-29
-4,-10,64,5,-33,24,71,5,34,2,34,16,23,-34
-7,-13,50,-4,-35,16,47,-2,23,-12,21,0,7,-45
-7,-10,40,9,-19,29,48,-5,29,-6,27,-1,9,-39
12,17,40,25,-4,37,56,-2,43,20,32,15,25,-23
31,26,36,20,-12,33,60,-1,43,27,30,15,21,-8
36,22,35,7,-11,30,76,3,50,18,33,3,13,2
29,20,39,-1,0,19,93,-5,56,15,31,-2,23,-6
29,20,39,-1,0,19,93,-5,56,15,31,-2,23,-6
10,-10,42,-13,-14,-4,97,-22,42,0,18,-3,18,-26
-9,-23,39,-18,-25,1,96,-25,38,-15,14,-10,4,-39
-1,-13,35,-5,-9,25,97,-20,50,-4,23,-23,8,-32
21,6,42,11,2,31,99,-15,58,26,26,-23,18,-14
30,28,44,27,2,45,80,-6,55,43,31,-7,20,1
30,28,44,27,2,45,80,-6,55,43,31,-7,20,1
29,23,37,34,-2,60,41,0,43,39,36,-1,15,5
24,20,36,25,-9,42,19,-8,36,36,24,-6,24,-4
27,35,49,30,-3,35,27,-6,54,39,22,1,32,1
41,46,60,40,5,61,39,9,68,42,31,12,33,18
33,32,51,28,1,56,39,-4,56,34,13,-1,32,7
10,2,42,23,2,36,44,-28,56,21,-7,-19,17,-13
4,6,48,33,7,48,65,-20,64,24,-5,-14,-1,-5
4,6,48,33,7,48,65,-20,64,24,-5,-14,-1,-5
8,9,53,19,6,51,81,-8,54,26,-14,-4,-10,-6
0,-11,45,-1,-4,30,61,-19,46,12,-32,-9,-8,-29
1,0,50,8,-21,30,25,-15,46,7,-27,-13,-1,-38
17,24,67,36,-28,65,21,16,39,23,-9,7,0,-26
24,39,66,59,-28,84,27,34,26,40,2,34,5,-15
27,45,59,60,-37,71,26,29,31,46,-3,33,17,-7
32,45,66,41,-43,53,40,15,34,44,-22,17,17,-6
32,45,66,41,-43,53,40,15,34,44,-22,17,17,-6
30,48,70,27,-50,39,60,4,20,33,-34,9,7,-20
28,37,73,33,-53,35,77,9,25,24,-33,13,8,-21
27,36,73,32,-38,41,95,19,42,34,-33,19,10,-6
28,47,67,28,-25,51,90,26,41,40,-28,22,-1,2
28,47,67,28,-25,51,90,26,41,40,-28,22,-1,2
29,40,57,30,-31,51,57,18,29,37,-27,13,-19,0
23,35,51,24,-32,33,26,2,28,35,-44,-3,-32,-7
9,24,59,24,-27,32,26,5,36,28,-43,2,-24,-16
-4,10,59,30,-31,44,43,19,32,12,-29,16,-8,-30
-11,2,55,23,-37,39,57,30,22,5,-39,23,-1,-42
0,9,76,22,-26,35,82,39,27,24,-42,33,17,-30
12,39,96,29,-18,43,105,41,34,35,-38,34,35,-6
12,39,96,29,-18,43,105,41,34,35,-38,34,35,-6
6,36,87,27,-23,39,106,34,30,25,-55,29,28,0
7,25,75,34,-24,43,89,34,29,23,-53,29,18,-8
16,39,76,48,-19,68,63,37,28,38,-37,34,14,-7
20,46,66,54,-15,68,38,33,29,42,-42,30,1,2
27,58,54,55,-7,59,27,29,46,45,-43,28,-5,8
34,48,60,45,6,64,32,31,52,48,-36,29,1,11
27,17,63,28,0,48,41,25,38,39,-55,13,-1,2
14,13,60,13,-21,25,52,7,25,29,-79,-6,0,-15
14,13,60,13,-21,25,52,7,25,29,-79,-6,0,-15
13,16,65,9,-32,26,66,-3,19,20,-74,-3,3,-18
17,28,61,19,-34,27,82,10,17,18,-68,17,4,-9
24,34,62,30,-30,31,94,31,27,25,-59,31,18,-2
30,31,85,27,-27,48,96,39,39,26,-39,32,35,2
23,34,88,27,-25,48,97,35,26,23,-38,28,32,-3
14,29,67,36,-33,34,89,33,11,26,-54,30,21,-12
14,29,67,36,-33,34,89,33,11,26,-54,30,21,-12
9,40,58,34,-54,37,51,35,5,31,-50,35,22,-18
6,46,61,33,-68,51,20,38,-8,26,-28,35,26,-20
-3,33,60,36,-68,56,30,39,-17,20,-20,21,11,-29
-16,26,63,24,-68,48,56,28,-12,20,-33,-2,4,-39
-13,14,67,14,-66,34,75,18,-2,17,-49,-9,16,-33
0,17,63,24,-51,28,88,19,8,10,-50,0,18,-24
0,17,63,24,-51,28,88,19,8,10,-50,0,18,-24
2,25,59,27,-32,35,94,25,19,13,-39,4,6,-23
-3,19,66,22,-15,45,100,28,29,21,-29,-3,-6,-14
10,26,72,36,-4,57,98,30,28,36,-19,-10,-21,1
29,31,71,49,3,66,75,27,25,48,-10,-9,-37,8
24,28,81,39,-1,65,51,26,22,41,-15,-8,-43,9
24,28,81,39,-1,65,51,26,22,41,-15,-8,-43,9
3,16,92,26,-5,58,51,31,15,36,-27,-8,-51,4
-6,4,92,35,9,58,64,33,14,51,-25,-7,-66,-1
12,28,90,46,20,68,74,31,14,70,-15,-3,-63,7
23,34,80,45,12,61,74,33,8,62,-19,-2,-66,16
9,13,68,33,7,36,75,30,6,46,-34,-5,-88,5
0,6,82,31,24,40,93,31,22,49,-26,-3,-84,2
4,5,97,40,38,64,112,38,33,60,-3,2,-65,16
4,5,97,40,38,64,112,38,33,60,-3,2,-65,16
10,8,86,34,32,59,92,36,24,59,-1,2,-69,23
27,9,85,27,32,46,58,31,29,55,-10,1,-74,28
33,8,94,30,36,51,42,31,41,56,-20,2,-61,29
7,6,90,31,24,52,33,29,23,51,-25,0,-48,12
-3,5,89,42,7,54,39,32,3,46,-14,3,-39,5
20,24,91,57,-2,62,51,38,7,66,0,5,-40,21
34,32,88,64,-2,65,63,37,12,80,5,3,-57,35
34,32,88,64,-2,65,63,37,12,80,5,3,-57,35
21,20,87,56,2,64,74,34,0,66,7,4,-53,24
-1,4,91,34,-9,51,78,30,-15,50,-7,4,-35,1
-5,-13,92,21,-28,36,82,27,-15,40,-19,0,-33,-3
8,-2,89,24,-24,36,84,30,-6,41,-8,1,-31,7
9,6,89,26,5,39,77,30,4,47,-3,2,-28,15
4,-5,93,23,23,32,59,25,16,48,-18,1,-34,18
4,-5,93,23,23,32,59,25,16,48,-18,1,-34,18
-6,-12,92,26,23,26,45,20,21,44,-20,-9,-37,10
-21,-29,88,25,24,33,38,20,20,31,-8,-29,-39,-3
-21,-19,90,28,27,47,52,26,22,33,-1,-24,-37,6
1,12,99,42,32,61,81,31,33,55,15,5,-21,29
24,26,102,56,31,65,97,32,33,66,35,10,-6,35
23,31,91,56,27,65,101,36,27,59,36,-2,2,28
23,31,91,56,27,65,101,36,27,59,36,-2,2,28
14,17,84,41,25,60,108,30,34,47,18,-5,6,29
18,11,82,26,11,37,108,7,32,44,-1,-14,6,29
26,13,72,26,-5,22,100,-5,8,42,-6,-26,10,22
16,5,61,30,-8,29,90,1,-5,41,0,-24,22,16
-1,4,58,30,0,34,92,1,10,33,-1,-17,26,15
1,2,66,32,14,30,103,-5,25,26,-3,-7,25,23
1,2,66,32,14,30,103,-5,25,26,-3,-7,25,23
1,9,63,34,20,29,89,-6,28,35,1,-9,29,21
-3,2,57,24,14,28,48,-4,23,33,-5,-28,32,6
-3,-21,75,17,4,27,28,-3,15,17,0,-34,30,-5
-12,-14,86,24,-5,30,44,-3,4,19,19,-22,28,-6
-15,-7,82,36,-6,36,57,11,5,26,38,-7,42,1
-6,-6,89,34,-8,30,63,33,14,14,47,4,49,1
-6,-6,89,34,-8,30,63,33,14,14,47,4,49,1
0,2,92,25,-20,21,67,30,16,8,41,6,41,-1
-2,-1,84,30,-34,27,52,20,19,26,35,3,40,6
-4,6,84,38,-39,32,25,16,14,30,31,4,45,9
-5,10,91,32,-37,25,15,11,2,14,30,1,46,4
-5,14,93,30,-32,26,34,18,7,18,42,1,55,10
-2,23,95,33,-28,39,53,33,20,41,57,3,59,30
6,26,90,43,-23,50,63,29,18,47,61,2,50,35
6,26,90,43,-23,50,63,29,18,47,61,2,50,35
14,46,86,59,-22,53,77,26,18,43,58,11,58,30
6,45,94,55,-19,40,93,28,31,34,51,15,66,25
-5,18,95,30,-14,27,97,17,31,24,44,3,56,20
-7,13,82,21,-20,24,94,5,29,15,41,-4,54,19
-12,8,78,32,-28,16,88,3,31,5,48,2,55,13
-12,8,78,32,-28,16,88,3,31,5,48,2,55,13
-25,0,88,21,-31,1,50,-2,14,1,50,1,54,-4
-33,-5,88,5,-34,0,11,-3,0,1,46,-12,55,-8
-31,1,84,13,-36,13,12,1,3,1,45,-17,58,3
-27,11,80,16,-46,9,20,1,1,0,45,-14,57,-3
-23,-1,70,18,-52,5,23,-2,-4,-1,53,-6,54,-10
-29,-4,73,25,-44,13,42,4,-4,3,60,2,60,-6
-39,-4,88,15,-37,10,66,5,-1,-4,60,-6,66,-9
-39,-4,88,15,-37,10,66,5,-1,-4,60,-6,66,-9
-42,-15,87,-6,-49,-7,68,-17,0,-24,53,-26,52,-16
-40,-16,71,-11,-59,-15,60,-32,-10,-29,36,-40,43,-19
-30,-16,71,1,-48,-9,72,-17,-19,-14,38,-34,51,-11
-26,2,83,16,-33,2,83,3,-10,2,62,-13,61,-2
-29,14,89,24,-34,9,63,2,4,4,74,-3,61,3
-19,4,86,16,-37,1,31,0,1,-11,66,-9,62,-4
-1,19,90,21,-25,9,26,19,-1,-7,80,3,78,-3
-1,19,90,21,-25,9,26,19,-1,-7,80,3,78,-3
11,42,100,47,-16,36,36,42,10,22,106,34,93,19
13,52,95,61,-29,38,26,44,6,39,107,35,89,33
11,53,90,56,-31,29,21,34,-7,32,97,18,87,27
5,45,95,46,-26,34,33,20,-4,16,92,13,85,11
-6,35,85,29,-37,23,37,0,-2,10,77,-2,69,-4
-1,30,82,26,-30,13,46,6,0,15,73,-3,69,10
-1,30,82,26,-30,13,46,6,0,15,73,-3,69,10
20,58,102,50,7,35,83,34,22,36,98,25,92,47
32,79,105,63,25,49,93,35,39,58,110,24,96,68
32,56,94,43,11,34,52,13,43,59,87,-2,83,60
25,46,96,26,-3,16,20,12,32,38,74,-5,83,40
8,35,106,28,-5,11,22,27,11,20,85,7,98,24
-6,22,111,36,-3,20,21,34,11,26,96,14,108,20
-6,22,111,36,-3,20,21,34,11,26,96,14,108,20
-2,32,108,48,0,37,22,34,29,34,110,24,104,24
10,36,100,61,0,46,42,34,32,35,122,28,88,30
22,47,105,70,0,60,60,45,25,46,124,24,98,40
30,63,117,85,9,82,76,61,29,61,130,32,117,54
34,67,105,92,9,81,94,57,31,62,136,37,103,50
27,62,89,69,-1,53,87,34,20,50,122,28,93,33
27,62,89,69,-1,53,87,34,20,50,122,28,93,33
9,33,91,41,-4,28,80,23,7,31,98,20,107,25
6,24,91,29,-4,25,86,27,4,31,87,21,108,26
13,32,87,28,-4,31,71,29,11,44,95,16,92,28
4,26,83,31,-10,27,32,24,6,31,97,8,93,28
-11,18,80,22,-27,14,-1,18,-9,10,83,6,99,16
-3,10,84,6,-34,12,-10,24,-5,17,83,10,94,12
-3,10,84,6,-34,12,-10,24,-5,17,83,10,94,12
18,23,87,9,-25,18,6,33,12,34,91,13,96,27
26,30,73,17,-27,10,20,23,12,26,76,6,97,33
21,26,60,7,-27,-1,19,11,12,15,67,-2,93,29
25,45,72,4,-8,7,35,21,24,29,77,-5,92,40
35,46,89,20,1,21,63,29,31,38,82,-4,91,53
32,46,88,40,-2,31,67,29,29,45,83,-2,100,53
30,59,87,49,-7,39,62,33,25,60,95,4,112,50
30,59,87,49,-7,39,62,33,25,60,95,4,112,50
30,58,97,43,-15,36,70,32,23,54,99,10,107,41
20,45,95,22,-26,22,82,26,14,34,76,3,85,26
19,26,89,13,-40,20,91,32,9,34,66,3,67,31
25,25,88,15,-54,27,95,40,9,47,81,7,54,41
20,14,89,5,-59,22,90,32,7,39,75,2,35,31
25,1,92,9,-49,18,70,27,5,31,67,0,25,37
25,1,92,9,-49,18,70,27,5,31,67,0,25,37
31,14,92,25,-46,27,37,30,0,39,77,7,36,55
11,3,90,16,-59,29,14,30,-3,36,78,5,27,43
-5,-15,90,7,-67,24,11,30,2,30,76,1,3,28
14,2,93,27,-59,29,21,33,13,44,90,5,12,49
36,17,102,41,-53,35,42,31,12,55,93,7,29,72
31,11,108,23,-65,31,55,29,0,45,73,0,23,55
13,-12,98,8,-70,25,57,20,1,28,66,-3,21,34
13,-12,98,8,-70,25,57,20,1,28,66,-3,21,34
1,-21,88,3,-64,26,59,19,4,23,69,0,28,37
8,-15,85,1,-71,21,57,22,0,24,61,-2,26,39
28,-23,84,-2,-74,7,60,10,0,25,49,-8,22,35
36,-10,83,-1,-65,12,68,6,5,24,50,-8,28,44
26,0,90,6,-60,28,58,26,9,25,65,-1,32,52
7,-10,91,10,-67,25,21,34,-3,28,68,4,32,34
7,-10,91,10,-67,25,21,34,-3,28,68,4,32,34
-3,-11,84,7,-71,19,-6,23,-14,29,64,15,30,22
6,-16,87,11,-58,26,-2,29,-3,24,65,26,32,41
19,-15,89,11,-41,28,12,29,13,29,61,16,33,56
16,-13,84,11,-28,35,31,7,22,40,60,-1,29,60
3,-23,89,16,-29,40,52,4,26,34,58,-4,27,54
3,-23,89,16,-29,40,52,4,26,34,58,-4,27,54
-18,-38,88,3,-49,24,56,19,2,19,52,-8,30,35
-18,-43,75,-3,-62,18,54,27,-18,22,57,-1,34,26
-1,-25,69,14,-62,28,57,29,-11,37,64,12,29,31
-7,-36,70,15,-61,24,59,27,-7,31,57,9,25,33
-15,-63,77,2,-63,11,66,16,-12,13,52,2,32,30
-16,-56,74,-12,-75,-2,52,-1,-21,1,36,-11,35,22
-16,-56,74,-12,-75,-2,52,-1,-21,1,36,-11,35,22
-21,-46,64,-18,-88,-4,11,-4,-26,-6,24,-18,28,20
-18,-29,68,-11,-80,9,-12,8,-24,2,41,2,34,27
-6,-18,74,6,-61,13,-1,12,-20,13,50,18,48,30
-7,-38,67,3,-60,3,9,1,-16,4,40,3,44,23
-12,-50,68,-14,-64,-3,20,-3,-12,-1,39,-9,42,19
-5,-49,89,-6,-57,3,44,6,2,7,46,7,59,21
-1,-32,92,8,-47,18,59,18,8,12,54,20,73,28
-1,-32,92,8,-47,18,59,18,8,12,54,20,73,28
6,-20,80,8,-38,26,53,29,10,18,61,24,67,40
9,-27,85,9,-26,13,35,34,17,27,49,25,60,43
1,-28,85,1,-30,-4,9,23,21,19,28,16,62,33
-1,-43,67,-19,-51,-6,-17,2,2,-5,26,-1,56,29
-4,-47,64,-18,-57,-4,-15,0,-13,-4,27,-8,49,29
-1,-18,86,-3,-36,6,22,20,11,26,34,9,58,32
-1,-18,86,-3,-36,6,22,20,11,26,34,9,58,32
16,-2,98,6,-23,25,43,36,36,42,58,32,64,49
19,-7,89,14,-30,29,39,34,21,37,59,26,59,55
3,-24,84,11,-30,12,27,22,6,28,40,5,59,37
-3,-28,86,3,-25,3,9,5,8,16,39,1,57,25
-3,-27,76,-2,-29,0,-7,0,8,4,44,6,51,24
-3,-27,76,-2,-29,0,-7,0,8,4,44,6,51,24
-5,-37,67,-1,-22,-3,1,12,16,7,48,5,53,27
5,-14,76,16,-5,13,2,30,24,35,63,18,59,34
16,9,93,36,-5,31,-22,44,16,51,72,37,63,39
9,-6,94,15,-26,13,-34,29,7,35,59,29,60,32
0,-15,88,-16,-41,-15,-24,6,9,18,46,16,66,25
8,-10,94,-3,-37,-3,-6,17,8,22,57,24,80,29
8,-10,94,-3,-37,-3,-6,17,8,22,57,24,80,29
12,3,89,22,-38,15,1,39,-1,29,70,34,77,31
2,-3,67,24,-48,7,0,36,-4,21,67,34,60,29
-3,-15,67,11,-45,0,0,23,-3,17,61,16,56,30
0,-11,73,1,-43,-4,-15,13,-1,25,50,-3,59,28
0,-21,69,-3,-42,-17,-33,5,0,15,41,9,58,20
-4,-19,82,-4,-27,-18,-26,6,7,7,47,32,64,18
-6,-11,94,-3,-10,-7,-5,6,23,14,55,27,69,25
-6,-11,94,-3,-10,-7,-5,6,23,14,55,27,69,25
-5,-13,76,6,-6,-3,-1,2,28,20,51,16,62,31
9,3,68,19,-5,9,3,10,30,28,51,24,57,43
36,19,95,35,13,43,29,16,49,62,68,35,62,71
41,37,90,48,39,65,33,7,65,109,65,28,68,99
30,43,61,53,52,84,-8,-7,57,153,42,8,62,124
43,50,72,69,53,120,-45,0,62,209,43,14,61,166
43,50,72,69,53,120,-45,0,62,209,43,14,61,166
81,91,86,105,87,168,-40,19,88,289,67,35,70,229
99,116,67,135,126,209,-25,17,105,355,77,28,67,279
91,115,50,133,116,206,-35,-19,107,374,50,-1,57,288
92,110,51,112,111,186,-27,-59,114,374,10,-20,60,293
101,111,39,110,133,185,-1,-65,125,380,9,-32,59,304
101,111,39,110,133,185,-1,-65,125,380,9,-32,59,304
97,122,23,117,121,189,-7,-47,120,383,28,-36,53,297
90,109,24,106,99,180,-18,-39,101,367,12,-20,54,281
91,99,34,99,92,173,-2,-33,92,356,10,-1,63,267
89,102,43,104,74,164,-1,-23,90,339,57,3,77,248
74,88,41,101,58,143,-40,-27,76,290,72,-2,72,219
60,86,45,84,50,130,-67,-24,64,252,51,5,67,193
60,76,54,77,38,117,-60,-1,64,228,62,18,81,174
60,76,54,77,38,117,-60,-1,64,228,62,18,81,174
63,60,51,84,26,98,-52,5,62,192,76,29,81,158
53,60,48,75,11,75,-59,1,54,153,52,31,69,132
35,37,58,50,-4,51,-58,-2,51,116,34,14,67,101
15,6,63,30,-2,28,-39,-23,44,79,31,-6,65,76
1,-7,63,20,0,10,-28,-44,39,45,29,-5,58,56
-1,-2,61,5,-17,-5,-24,-40,36,27,29,1,63,44
-1,-2,61,5,-17,-5,-24,-40,36,27,29,1,63,44
1,-2,55,-17,-35,-28,-18,-33,22,15,20,-2,78,34
-10,-17,58,-22,-46,-43,-16,-26,8,-7,15,13,86,14
-33,-22,56,-36,-68,-60,-22,-22,-11,-33,18,23,79,-13
-41,-35,39,-60,-87,-81,-25,-32,-32,-47,6,6,65,-28
-24,-34,27,-55,-79,-81,-21,-40,-22,-46,-7,-10,60,-18
-6,-1,35,-36,-62,-68,-31,-36,4,-39,9,0,66,-2
-10,7,49,-27,-53,-58,-48,-19,18,-37,35,19,76,6
-29,-2,51,-14,-52,-43,-52,-4,12,-36,43,22,83,-2
-29,-2,51,-14,-52,-43,-52,-4,12,-36,43,22,83,-2
-36,-11,52,0,-53,-31,-44,1,7,-39,43,22,85,-15
-28,-14,61,-1,-45,-34,-26,4,20,-47,38,31,92,-12
-28,-6,65,-13,-43,-48,-6,1,22,-50,27,30,94,-9
-37,-18,60,-19,-47,-47,5,-6,4,-51,29,30,90,-15
-36,-15,56,-8,-50,-32,6,13,0,-46,38,49,96,-12
-36,-15,56,-8,-50,-32,6,13,0,-46,38,49,96,-12
-29,-4,58,0,-50,-37,-3,24,11,-46,32,53,99,-3
-25,-10,59,-17,-59,-63,-24,0,7,-53,21,44,96,-11
-18,-7,60,-27,-65,-66,-34,6,0,-56,23,57,100,-20
-23,-18,61,-23,-67,-58,-32,33,-4,-67,21,61,98,-24
-38,-28,63,-32,-76,-66,-32,14,-16,-83,2,37,93,-38
-38,-14,62,-39,-73,-72,-15,-9,-18,-85,-1,27,100,-40
-28,-15,53,-32,-69,-68,12,2,-9,-79,6,32,93,-28
-28,-15,53,-32,-69,-68,12,2,-9,-79,6,32,93,-28
-21,-11,40,-28,-68,-57,1,-3,-5,-69,-6,21,75,-17
-4,18,44,-2,-46,-31,-28,-7,5,-42,7,29,81,5
13,42,57,30,-29,-16,-39,24,14,-19,46,61,84,17
-3,19,59,15,-29,-32,-38,33,10,-37,50,61,66,6
-29,-23,59,-19,-25,-51,-27,8,9,-63,28,36,45,-2
-33,-25,63,-32,-27,-61,-13,-2,-2,-59,11,27,33,-12
-33,-25,63,-32,-27,-61,-13,-2,-2,-59,11,27,33,-12
-35,-34,65,-39,-43,-62,9,7,-18,-60,1,31,20,-28
-54,-60,60,-49,-51,-65,22,0,-20,-85,-3,19,2,-37
-70,-61,55,-46,-39,-67,13,-4,-12,-90,9,15,-9,-35
-43,-46,62,-12,-16,-43,18,21,10,-55,33,40,-7,-9
-8,-23,78,12,-1,-7,19,38,23,-25,52,65,5,18
-11,-21,85,14,4,-1,-15,38,17,-24,55,68,4,17
-11,-21,85,14,4,-1,-15,38,17,-24,55,68,4,17
-34,-32,88,8,0,-15,-40,30,3,-31,42,55,0,4
-46,-38,86,-5,-17,-32,-46,13,0,-45,18,29,0,-4
-37,-51,72,-23,-35,-50,-59,-4,1,-63,-4,11,-1,-12
-25,-49,57,-40,-38,-69,-60,-10,-6,-62,-14,11,-1,-10
-22,-50,58,-43,-34,-70,-29,1,-3,-63,-8,24,-2,-1
-22,-50,58,-43,-34,-70,-29,1,-3,-63,-8,24,-2,-1
-31,-58,65,-22,-30,-47,-4,19,7,-67,13,41,0,-5
-44,-47,60,-1,-32,-28,3,25,7,-51,25,50,4,-8
-31,-33,62,1,-48,-27,5,18,0,-36,22,49,11,-2
-2,-6,77,11,-58,-17,11,24,-2,-27,25,55,23,3
5,0,78,29,-59,-5,2,43,-6,-20,41,73,36,5
5,0,78,29,-59,-5,2,43,-6,-20,41,73,36,5
-15,-30,70,15,-64,-19,-26,34,-11,-33,44,68,26,1
-31,-45,60,-9,-55,-35,-40,5,-6,-50,22,40,1,-7
-29,-51,43,-12,-28,-38,-42,-9,4,-47,0,25,-11,2
-6,-26,35,5,-9,-28,-49,-7,15,-29,5,25,-6,31
22,9,47,30,3,-4,-41,0,33,-8,20,29,-2,49
13,-4,53,31,0,-5,-16,0,41,-5,11,31,-4,40
-14,-35,49,2,-24,-34,-5,-2,19,-20,-6,27,-2,11
-14,-35,49,2,-24,-34,-5,-2,19,-20,-6,27,-2,11
-13,-43,57,-5,-26,-41,4,-1,3,-31,2,23,-2,8
14,-1,63,20,-12,-14,21,24,19,-16,36,42,10,42
26,34,62,40,-18,3,31,51,22,-2,64,68,29,53
14,11,67,32,-30,-6,30,45,-1,-11,67,70,33,34
-2,-14,68,7,-28,-29,29,27,-15,-26,49,53,26,18
-2,-25,67,-5,-28,-33,32,12,-19,-38,29,39,27,9
0,-19,66,6,-34,-17,6,2,-21,-36,16,29,29,4
0,-19,66,6,-34,-17,6,2,-21,-36,16,29,29,4
-2,2,63,20,-21,-6,-31,10,-13,-21,20,26,27,21
1,12,71,42,7,15,-27,31,3,-12,49,44,30,36
4,17,82,62,23,29,-5,36,15,-14,65,68,39,33
-1,-3,74,43,19,8,-6,19,16,-25,40,58,45,32
-7,-22,56,6,2,-25,-10,0,1,-34,9,29,40,25
-3,-8,54,4,-13,-25,6,-10,-11,-36,10,17,29,20
-3,-8,54,4,-13,-25,6,-10,-11,-36,10,17,29,20
3,2,62,27,-16,-9,26,-3,-6,-34,23,31,24,24
-3,3,62,25,-11,-12,32,19,-6,-29,24,48,36,22
-6,-5,63,13,-10,-11,32,25,-12,-21,28,45,47,23
9,1,65,16,-10,-2,42,15,-10,-11,31,38,40,29
25,21,61,25,-14,1,59,18,-14,-10,34,47,40,29
22,24,69,41,-11,6,59,37,-23,-5,55,66,56,29
22,24,69,41,-11,6,59,37,-23,-5,55,66,56,29
7,28,80,48,-10,14,32,40,-31,8,70,75,62,29
-3,14,73,39,-16,13,-2,29,-30,-1,57,69,58,22
-6,-3,70,40,-4,11,-1,34,-14,-9,52,64,59,24
-1,3,76,46,18,10,22,28,2,2,54,57,55,29
-2,-14,66,34,15,-1,29,8,3,-8,37,52,43,21
-23,-23,52,21,-2,-11,32,5,-2,-25,26,50,36,7
-23,-23,52,21,-2,-11,32,5,-2,-25,26,50,36,7
-34,-12,53,19,0,-6,50,21,-7,-23,35,49,39,4
-16,-6,69,20,4,0,71,27,-11,-23,38,49,49,18
0,-4,73,14,0,-16,77,21,-6,-21,22,53,66,25
-3,-5,72,9,-2,-30,73,24,-5,-16,11,60,72,18
6,11,71,17,-4,-22,65,26,-18,-17,15,60,68,18
6,11,71,17,-4,-22,65,26,-18,-17,15,60,68,18
26,32,73,30,-13,-6,52,31,-12,-13,28,67,79,32
36,39,80,32,-17,-1,28,36,7,1,36,72,82,49
30,47,74,35,-17,8,-1,29,5,9,33,63,71,55
33,46,66,56,-11,26,0,24,5,16,31,61,75,60
55,52,79,60,0,30,24,23,30,33,31,65,90,68
58,55,82,39,5,14,32,8,35,35,17,55,87,73
58,55,82,39,5,14,32,8,35,35,17,55,87,73
35,35,68,26,-2,-7,26,-6,18,13,8,43,68,59
23,34,67,24,-11,-8,16,-1,14,6,19,52,63,48
34,43,80,37,-2,7,11,10,23,18,34,59,71,58
35,54,74,50,-4,10,12,10,20,23,31,40,68,65
27,51,68,30,-25,-3,9,2,6,11,29,22,60,51
26,31,80,11,-34,-9,7,13,3,-3,35,38,72,36
26,31,80,11,-34,-9,7,13,3,-3,35,38,72,36
27,45,91,36,-26,12,13,48,11,8,48,75,99,41
28,60,95,74,-24,49,11,74,13,26,84,101,115,45
29,54,93,81,-32,58,-7,69,3,22,101,104,120,30
22,49,85,60,-36,32,-11,45,-5,9,64,85,108,25
10,35,72,36,-30,5,-4,24,-1,-6,31,65,93,33
4,31,58,22,-16,-3,3,23,3,-17,28,57,90,23
4,31,58,22,-16,-3,3,23,3,-17,28,57,90,23
16,35,63,29,3,-2,27,32,16,-5,36,61,90,22
33,51,79,40,26,6,33,39,33,20,50,73,91,53
36,59,79,29,26,-1,11,33,31,15,43,63,93,60
31,33,64,3,3,-22,-4,13,21,-7,15,35,83,37
31,31,60,-10,-5,-31,-5,11,27,0,11,35,89,34
35,44,70,4,-5,-20,4,33,32,3,33,65,112,44
27,38,65,6,-24,-23,2,35,7,-21,31,72,106,31
27,38,65,6,-24,-23,2,35,7,-21,31,72,106,31
19,37,51,-10,-49,-51,-23,22,-16,-26,11,61,93,14
32,36,60,-9,-55,-53,-38,27,-3,-10,14,63,103,26
27,32,74,1,-48,-32,-21,33,13,-13,30,64,107,33
3,18,68,2,-39,-24,4,29,7,-23,33,62,96,19
9,13,53,10,-27,-19,20,31,5,-10,31,66,94,14
27,38,50,24,-13,-5,34,34,23,4,28,63,94,26
27,38,50,24,-13,-5,34,34,23,4,28,63,94,26
18,43,57,26,-11,3,48,25,40,2,13,49,89,30
1,30,52,17,-30,-4,50,10,22,3,-3,35,91,20
1,29,35,18,-33,-7,34,4,-5,9,-3,35,89,19
18,50,35,37,-8,6,11,18,7,23,11,52,87,32
48,91,50,63,6,33,-5,44,28,53,35,76,94,50
70,103,56,78,3,49,-2,61,19,68,49,90,98,65
70,103,56,78,3,49,-2,61,19,68,49,90,98,65
60,81,55,61,-9,28,19,54,4,47,41,79,95,55
21,42,47,23,-39,-5,33,33,-12,6,15,57,94,17
0,27,34,15,-66,-12,36,24,-31,-13,4,53,92,-3
14,54,41,27,-63,-2,56,28,-28,11,10,63,89,9
14,44,61,17,-47,0,76,28,-21,18,8,55,100,11
14,44,61,17,-47,0,76,28,-21,18,8,55,100,11
-6,23,63,13,-43,2,68,28,-22,6,13,47,109,-2
-8,33,54,30,-33,6,45,35,-11,7,27,56,103,0
1,32,55,24,-6,1,36,33,9,7,17,59,91,14
-3,29,43,3,13,-9,43,22,15,-1,-7,43,87,15
-2,26,30,5,13,-18,54,20,18,-4,-1,36,90,9
-1,18,36,5,3,-27,60,26,15,-15,11,39,91,5
-1,18,36,5,3,-27,60,26,15,-15,11,39,91,5
-18,10,46,-12,-4,-33,67,29,5,-26,0,36,91,0
-23,13,54,-9,-1,-33,73,31,7,-17,5,47,92,2
-4,33,57,-1,-3,-36,53,29,9,-12,18,55,96,6
-4,25,53,-19,-14,-46,26,18,0,-29,7,39,93,3
-19,12,49,-29,-19,-56,20,20,-6,-33,-4,40,91,-5
-16,26,55,-17,-9,-55,30,27,1,-15,11,64,96,2
-16,26,55,-17,-9,-55,30,27,1,-15,11,64,96,2
3,35,64,-5,-3,-42,36,35,7,-6,31,72,84,22
9,40,62,-7,-5,-23,31,51,3,1,32,63,65,27
7,28,58,1,-6,-10,33,53,1,11,33,63,52,26
2,8,59,24,0,4,58,47,3,18,35,64,30,28
-18,5,61,32,2,16,66,42,-1,16,32,48,5,22
-24,1,58,39,4,26,40,40,11,14,36,42,-5,16
-24,1,58,39,4,26,40,40,11,14,36,42,-5,16
-1,16,58,54,18,32,25,42,30,31,39,59,-1,27
3,12,59,46,27,18,17,41,24,34,21,55,-3,33
-19,-23,63,18,23,2,3,30,16,18,1,29,-12,28
-19,-24,71,18,18,6,6,26,18,17,7,41,2,29
0,-11,77,31,14,8,25,36,9,25,22,67,22,30
-3,0,77,24,0,5,43,45,-1,30,27,62,16,22
-3,0,77,24,0,5,43,45,-1,30,27,62,16,22
-4,7,74,35,-14,21,58,52,-3,37,35,64,14,25
2,1,67,62,-12,44,61,43,-14,46,41,66,24,31
-16,6,49,57,-15,37,54,24,-21,40,28,39,9,20
-25,-1,38,35,-14,9,63,27,-2,19,14,26,-9,8
-7,-7,43,30,14,8,64,28,16,16,19,37,-1,21
7,-3,43,36,41,27,32,8,24,31,19,28,2,37
7,-3,43,36,41,27,32,8,24,31,19,28,2,37
2,-7,39,35,36,23,10,-7,31,23,13,12,-4,32
-2,-8,47,26,28,6,21,-4,31,12,12,16,2,28
8,-13,63,16,34,7,41,4,24,20,12,30,7,33
-6,-26,55,3,9,-5,42,1,6,8,1,32,1,12
-33,-48,38,-13,-19,-36,46,-7,-11,-24,-9,21,-1,-18
-25,-50,46,-12,-11,-34,69,-2,-3,-16,-4,22,15,-1
-25,-50,46,-12,-11,-34,69,-2,-3,-16,-4,22,15,-1
2,-15,61,0,2,-16,64,4,11,13,-3,30,28,27
4,-4,60,-2,-4,-23,27,-2,9,9,-2,29,24,15
-4,-13,54,-7,-9,-36,12,4,-1,-3,10,38,23,3
1,-4,59,11,-5,-23,23,26,-2,10,25,58,36,16
7,3,64,35,1,3,32,41,6,19,46,74,40,33
7,3,64,35,1,3,32,41,6,19,46,74,40,33
9,5,64,37,3,9,47,37,9,14,57,81,43,40
9,-4,58,22,2,-4,68,17,3,1,34,70,46,34
3,-19,45,5,-7,-16,68,-6,-5,-17,-3,35,34,19
-4,-20,45,2,-10,-12,53,-10,-2,-25,-9,20,29,12
4,-13,60,27,12,12,45,8,15,-11,16,48,40,27
11,9,62,55,27,35,39,15,29,8,36,61,44,41
8,15,48,59,15,37,31,4,31,7,30,46,41,39
8,15,48,59,15,37,31,4,31,7,30,46,41,39
15,6,43,44,2,28,26,-7,27,-5,11,43,42,30
20,6,46,28,0,21,38,-5,16,-9,2,55,51,24
17,-1,52,39,9,30,67,8,13,-7,17,62,56,31
23,13,58,62,26,43,93,15,21,2,32,63,60,39
25,27,64,62,34,40,115,8,24,5,26,66,64,35
17,14,62,50,26,27,120,-1,15,-1,12,61,62,27
17,14,62,50,26,27,120,-1,15,-1,12,61,62,27
20,15,53,52,29,43,93,2,16,4,16,55,58,33
22,11,53,68,41,63,62,11,33,11,33,61,58,44
7,1,45,66,38,44,55,14,30,6,28,69,55,32
-5,-16,32,42,28,22,63,5,7,-13,4,52,39,11
0,-30,36,26,27,24,75,-5,3,-28,-7,34,33,10
0,-30,36,26,27,24,75,-5,3,-28,-7,34,33,10
15,-5,55,39,47,36,99,7,23,-14,1,46,52,25
21,8,65,60,65,43,125,26,32,-2,7,66,65,33
13,-3,59,55,60,33,136,19,24,-17,-1,54,59,26
19,-5,51,38,54,22,143,2,24,-22,-13,36,54,26
37,13,57,38,58,27,154,-3,30,-3,-19,34,62,36
40,29,57,34,47,27,152,3,19,6,-16,31,67,33
40,29,57,34,47,27,152,3,19,6,-16,31,67,33
26,9,42,29,30,19,135,18,7,-11,-8,40,59,28
13,-2,39,45,30,29,111,34,5,-17,4,59,55,27
15,7,54,47,28,32,88,36,-9,-11,0,60,73,17
29,11,58,34,21,20,95,30,-12,-9,-16,59,88,20
35,35,57,44,27,23,135,26,5,1,-19,61,86,40
34,40,63,54,36,31,157,22,11,7,-12,46,73,43
34,40,63,54,36,31,157,22,11,7,-12,46,73,43
32,18,58,36,35,27,163,21,5,-9,-10,34,66,28
28,13,53,29,31,27,178,30,3,-20,-9,51,80,26
35,23,58,40,35,30,178,36,5,-4,-8,65,88,37
43,37,56,35,45,26,147,29,5,12,-22,52,79,37
37,31,55,28,49,21,122,20,6,4,-32,41,78,30
37,31,55,28,49,21,122,20,6,4,-32,41,78,30
40,31,57,41,46,32,119,31,4,2,-17,59,93,33
58,53,44,61,41,50,119,41,5,22,-7,67,95,46
65,57,33,65,41,43,115,30,7,27,-23,44,88,56
60,69,44,58,51,30,125,24,7,27,-41,41,92,54
61,74,48,64,60,48,149,31,21,35,-34,65,90,61
60,53,49,74,61,63,141,38,34,29,-24,68,90,59
60,53,49,74,61,63,141,38,34,29,-24,68,90,59
52,38,52,63,59,42,101,32,28,8,-33,48,93,37
54,33,48,45,62,25,80,17,23,8,-52,36,89,36
58,55,40,46,63,33,78,12,29,32,-68,28,86,62
67,71,35,52,65,36,82,18,32,31,-69,28,90,68
68,51,38,55,63,32,101,26,26,9,-65,44,86,44
41,29,40,45,50,22,116,30,17,-5,-66,56,85,19
41,29,40,45,50,22,116,30,17,-5,-66,56,85,19
26,19,44,37,49,24,126,35,20,-5,-63,59,103,26
51,42,44,50,63,44,144,43,33,13,-48,62,111,50
66,63,38,66,61,55,148,48,35,27,-42,62,95,53
43,50,31,65,50,51,123,51,29,19,-50,63,90,36
28,42,29,62,54,54,97,45,30,11,-57,57,98,29
28,42,29,62,54,54,97,45,30,11,-57,57,98,29
32,39,35,68,56,64,88,35,31,11,-56,40,93,35
33,51,32,66,37,64,82,34,30,12,-60,40,88,35
34,62,30,63,27,55,86,36,23,15,-64,45,91,29
34,47,35,59,31,41,109,36,11,13,-59,39,88,27
22,34,34,40,28,28,122,38,8,4,-65,44,84,19
21,28,28,25,23,25,107,40,22,1,-79,51,81,14
21,28,28,25,23,25,107,40,22,1,-79,51,81,14
46,48,26,30,27,19,84,31,32,10,-80,45,84,27
52,61,29,26,24,5,68,34,28,6,-76,51,92,35
30,30,34,8,9,-7,60,52,15,-13,-85,65,94,15
18,21,35,7,-5,-15,68,56,-2,-23,-95,57,91,-4
30,39,25,23,-3,-8,87,43,-4,-15,-93,52,89,9
50,64,17,41,11,16,101,32,19,14,-95,54,78,40
50,64,17,41,11,16,101,32,19,14,-95,54,78,40
65,79,17,53,26,32,120,28,43,33,-97,39,66,56
67,68,11,62,47,36,138,30,56,34,-89,28,65,60
63,65,6,57,61,38,131,40,56,35,-86,37,65,59
62,62,20,42,60,36,113,47,57,32,-87,52,73,56
60,55,34,43,53,29,106,43,62,28,-86,53,89,57
60,55,34,43,53,29,106,43,62,28,-86,53,89,57
61,60,30,52,46,28,99,36,50,27,-85,44,89,48
61,58,28,56,35,41,93,34,41,31,-85,37,70,39
55,57,23,53,22,44,101,30,42,32,-92,30,64,39
50,55,22,55,21,35,123,27,40,31,-94,31,77,38
55,62,31,59,21,42,131,34,43,29,-78,39,79,32
52,72,25,61,9,61,113,41,49,35,-61,39,76,32
52,72,25,61,9,61,113,41,49,35,-61,39,76,32
38,54,11,64,3,65,90,38,40,36,-60,36,83,33
36,52,17,69,6,61,71,28,22,38,-68,29,88,35
57,67,31,75,10,64,64,32,32,53,-67,34,89,54
63,65,31,78,8,68,75,56,53,50,-54,53,89,63
39,53,27,62,1,58,78,59,43,27,-58,54,81,44
21,29,28,39,1,41,55,41,28,11,-77,39,64,29
26,30,24,38,9,31,40,46,37,17,-79,40,55,27
26,30,24,38,9,31,40,46,37,17,-79,40,55,27
37,48,25,45,12,32,55,58,52,29,-70,50,57,30
41,51,40,42,5,37,65,60,44,28,-63,55,52,34
31,42,47,28,-1,35,58,69,29,25,-56,58,37,25
28,24,53,31,1,36,60,86,32,26,-43,62,20,19
46,36,64,54,5,51,82,96,44,38,-29,78,9,40
63,52,54,63,5,56,90,92,43,48,-29,89,4,52
63,52,54,63,5,56,90,92,43,48,-29,89,4,52
54,30,40,42,2,35,72,77,35,43,-37,70,-4,33
34,8,48,14,0,10,49,62,41,28,-45,51,-6,25
34,-2,56,19,5,7,34,64,59,24,-44,64,-5,35
42,3,46,31,18,17,22,67,60,33,-48,64,-10,32
36,-5,44,25,27,22,23,50,48,28,-63,35,-17,24
29,-26,60,31,30,35,45,41,52,25,-56,24,-12,31
30,-9,57,51,28,52,61,63,53,42,-26,45,-2,36
30,-9,57,51,28,52,61,63,53,42,-26,45,-2,36
29,8,39,68,20,70,65,88,43,49,0,66,-5,26
35,5,40,74,18,77,65,79,38,47,-4,63,-7,26
55,11,57,72,20,69,51,62,39,55,-20,59,1,43
59,5,66,65,13,59,37,63,38,54,-27,62,5,50
34,-12,57,44,0,46,26,59,30,34,-39,51,2,26
34,-12,57,44,0,46,26,59,30,34,-39,51,2,26
17,-33,56,30,-6,36,10,53,25,19,-44,45,1,8
39,-25,65,46,3,47,13,60,27,27,-36,57,7,31
66,2,65,62,23,61,43,62,43,55,-29,61,7,55
61,-6,65,66,50,64,73,58,61,67,-22,53,-3,54
49,-9,69,75,61,76,79,72,62,70,-9,64,-1,49
55,-5,67,79,64,90,69,91,67,76,2,76,5,56
55,-5,67,79,64,90,69,91,67,76,2,76,5,56
65,-7,73,79,80,82,59,95,86,74,13,82,3,63
67,-4,78,85,89,76,58,92,90,66,17,82,13,57
65,-13,71,78,73,74,61,89,67,62,7,73,18,47
60,-18,77,72,58,61,65,86,59,65,3,72,10,41
60,-20,85,82,48,66,57,87,60,63,13,81,17,40
62,-27,74,75,32,68,23,87,36,52,11,73,28,36
62,-27,74,75,32,68,23,87,36,52,11,73,28,36
48,-29,66,48,14,38,-10,82,12,33,-2,55,27,20
30,-42,73,40,6,21,-3,84,19,25,-1,56,27,6
26,-41,62,39,13,30,17,87,26,34,3,64,27,12
30,-34,41,35,43,28,34,75,31,32,-7,58,20,28
36,-42,35,30,65,15,54,58,48,19,-25,42,18,30
36,-42,35,30,65,15,54,58,48,19,-25,42,18,30
42,-38,41,23,64,16,64,54,60,20,-28,35,23,25
43,-34,57,36,67,34,69,62,55,29,-9,51,24,31
32,-28,61,53,64,51,59,61,44,32,1,63,20,28
25,-24,56,50,50,58,35,54,37,35,-9,52,20,25
45,-24,57,48,52,59,23,53,35,40,-11,36,28,34
53,-19,58,54,54,59,27,54,29,44,-9,31,34,36
53,-19,58,54,54,59,27,54,29,44,-9,31,34,36
34,-28,59,61,34,62,42,58,25,38,-1,47,31,29
38,-23,60,63,23,66,64,64,26,43,21,66,32,27
62,-7,62,59,31,67,62,64,29,56,22,57,35,35
63,-11,63,54,39,63,36,57,40,59,1,44,32,46
52,-6,60,56,42,59,23,56,49,66,0,51,34,53
64,3,60,67,43,65,28,63,42,76,25,66,41,64
64,2,58,71,37,60,29,64,32,68,33,68,41,64
64,2,58,71,37,60,29,64,32,68,33,68,41,64
33,-23,43,52,29,29,25,54,23,42,8,45,32,38
12,-62,24,24,21,-1,31,34,18,21,-24,12,12,17
23,-46,22,23,17,0,42,23,24,26,-23,7,-1,23
37,-25,31,35,30,6,34,31,35,41,-2,24,13,33
29,-42,46,31,48,-3,22,47,45,35,4,30,25,28
29,-42,46,31,48,-3,22,47,45,35,4,30,25,28
26,-39,57,39,57,8,45,59,58,27,13,35,33,26
45,-25,62,62,60,29,68,66,64,40,32,54,48,38
62,-11,59,64,64,24,64,66,60,48,32,62,55,54
62,-2,45,61,67,12,65,69,57,48,32,62,46,66
52,-5,39,64,56,4,58,70,50,52,38,64,48,54
49,-9,49,52,44,-7,25,62,42,50,18,58,61,32
49,-9,49,52,44,-7,25,62,42,50,18,58,61,32
55,-8,49,53,57,-4,7,60,57,51,8,51,56,44
64,8,29,64,73,4,9,66,78,68,24,45,41,69
61,-7,23,47,72,-6,2,57,73,65,19,34,41,66
45,-36,31,39,67,-8,8,40,62,45,2,28,49,56
28,-30,30,54,63,2,24,32,57,42,1,30,51,47
34,-28,28,54,62,-5,34,31,50,42,6,29,50,37
34,-28,28,54,62,-5,34,31,50,42,6,29,50,37
47,-26,27,40,56,-21,48,43,46,34,16,36,58,36
39,-29,28,29,40,-29,58,56,43,23,26,46,63,39
27,-38,30,29,31,-29,57,56,30,19,25,39,55,30
32,-24,35,38,34,-23,66,52,25,25,21,34,63,27
38,-24,36,32,33,-32,82,53,32,25,19,39,81,36
38,-24,36,32,33,-32,82,53,32,25,19,39,81,36
29,-30,32,13,30,-54,67,47,28,25,10,37,82,38
32,-21,32,21,35,-54,27,39,29,38,2,33,77,36
43,-17,36,35,39,-34,1,38,34,47,11,32,75,39
29,-14,23,25,31,-34,-4,35,20,34,13,36,65,28
18,-20,13,24,30,-52,2,46,6,19,10,51,61,11
25,-24,19,32,38,-60,11,59,9,23,15,51,72,10
25,-24,19,32,38,-60,11,59,9,23,15,51,72,10
34,-14,11,29,52,-47,20,55,19,42,22,33,72,26
46,2,3,34,79,-26,40,57,35,55,28,29,63,47
45,10,6,45,86,-23,59,57,42,50,31,30,63,45
21,-23,6,35,65,-33,60,40,25,23,34,27,61,16
14,-43,8,17,57,-37,42,29,13,5,28,32,67,7
31,-24,-2,15,66,-36,12,30,15,20,23,26,70,32
31,-24,-2,15,66,-36,12,30,15,20,23,26,70,32
37,-19,-17,30,68,-28,-6,31,12,35,30,21,55,42
29,-29,-21,25,58,-38,-6,30,-3,19,31,26,47,22
15,-56,-21,-8,45,-74,-3,24,-16,-7,18,13,54,7
6,-64,-20,-21,32,-85,4,15,-22,-10,4,4,59,2
2,-47,-6,-9,27,-71,20,13,-29,-7,-2,13,68,-2
2,-47,-6,-9,27,-71,20,13,-29,-7,-2,13,68,-2
-2,-52,4,5,27,-64,16,17,-31,-11,7,18,78,-4
10,-36,-5,17,41,-48,-13,29,-19,10,33,22,76,11
28,-13,-3,33,53,-22,-27,42,-10,34,53,33,63,28
16,-24,-1,36,39,-27,-30,43,-23,22,51,35,60,16
-4,-35,-11,17,25,-54,-40,38,-43,3,41,32,81,-2
8,-36,-11,-2,28,-64,-48,36,-42,-1,36,33,86,-2
8,-36,-11,-2,28,-64,-48,36,-42,-1,36,33,86,-2
27,-16,-7,3,37,-55,-32,29,-26,7,35,27,69,11
33,0,-3,28,54,-35,-5,36,-7,17,46,29,79,29
31,-12,0,36,65,-29,-12,56,-3,21,61,37,88,34
22,-29,-5,16,44,-43,-56,53,-21,16,48,36,70,17
26,-23,-4,14,36,-44,-73,30,-21,17,28,29,69,20
51,13,9,35,58,-34,-53,31,-1,41,38,28,95,45
51,13,9,35,58,-34,-53,31,-1,41,38,28,95,45
58,22,14,49,60,-25,-37,52,0,51,61,41,97,43
41,8,2,53,53,-9,-21,58,-11,35,69,53,84,32
32,17,-4,58,62,3,-1,63,-11,36,71,65,90,38
47,12,0,56,71,3,4,64,6,46,76,58,92,48
61,9,3,51,75,6,-3,38,24,41,63,33,83,52
61,9,3,51,75,6,-3,38,24,41,63,33,83,52
61,20,4,46,77,6,-18,22,23,38,41,21,79,53
57,14,11,40,75,2,-25,39,14,44,44,31,83,52
56,17,16,39,73,8,-13,58,19,39,56,41,90,52
64,25,16,54,82,16,3,64,30,34,68,54,88,64
70,22,22,55,84,13,18,64,28,41,70,65,77,64
60,9,33,30,62,4,37,58,16,33,54,52,66,42
40,-9,37,18,38,-11,42,58,4,12,46,46,58,31
40,-9,37,18,38,-11,42,58,4,12,46,46,58,31
23,-20,34,24,27,-20,12,63,-11,1,54,61,43,27
23,-31,35,30,32,-12,-19,67,-11,4,62,69,33,26
44,-16,39,39,46,2,-16,69,15,24,63,69,31,45
56,2,37,41,55,8,-5,65,31,40,56,61,17,62
40,-34,30,20,42,-4,-8,57,11,20,40,41,-1,43
13,-63,22,5,25,-21,1,52,-8,-11,36,25,-3,19
13,-63,22,5,25,-21,1,52,-8,-11,36,25,-3,19
13,-59,22,17,35,-16,25,54,0,-10,51,35,-2,27
38,-41,26,32,55,0,42,62,15,21,63,54,-3,50
61,-18,18,43,64,17,57,68,25,46,69,61,3,70
70,-17,17,44,53,26,57,65,23,46,73,51,3,77
57,-22,20,31,35,9,22,58,6,38,62,39,-3,66
39,-31,17,27,26,-6,-4,60,-8,22,56,52,10,55
39,-31,17,27,26,-6,-4,60,-8,22,56,52,10,55
33,-40,21,32,11,2,-5,66,-21,3,67,66,29,39
32,-46,21,17,-4,-8,-5,64,-29,0,58,62,29,22
28,-60,16,2,-6,-33,7,59,-26,-7,38,55,18,24
24,-55,24,-2,-17,-38,29,65,-29,-21,43,61,25,22
26,-53,33,2,-26,-33,49,70,-34,-19,61,67,25,11
26,-53,33,2,-26,-33,49,70,-34,-19,61,67,25,11
30,-60,15,18,-7,-15,59,68,-17,-11,80,68,7,17
33,-50,-3,35,18,5,50,65,-1,-12,84,61,-2,35
34,-48,3,37,28,12,31,61,10,-13,78,53,-1,39
30,-44,11,32,31,18,27,57,18,-8,76,58,-3,36
25,-41,12,31,25,25,41,60,13,-10,72,57,-2,29
31,-44,7,34,21,21,48,58,12,-13,63,41,0,32
31,-44,7,34,21,21,48,58,12,-13,63,41,0,32
47,-28,-3,27,20,8,32,38,22,-5,46,27,-2,46
56,-27,-2,10,15,-5,8,24,31,-9,30,26,-9,47
56,-28,15,14,8,-6,3,41,28,-13,35,36,1,45
51,-23,15,34,2,3,7,55,14,-12,59,46,20,47
44,-29,3,38,-3,7,14,49,0,-15,72,52,22,42
48,-16,5,45,-6,14,32,53,8,-11,73,57,20,40
61,-7,14,57,-1,32,46,62,28,-6,76,66,28,51
61,-7,14,57,-1,32,46,62,28,-6,76,66,28,51
60,-11,10,43,-5,24,34,56,26,-13,63,65,31,52
49,-15,3,27,-5,0,10,52,22,-19,54,60,26,44
50,-13,4,34,21,4,-3,59,33,-17,62,64,24,51
52,-5,-2,29,28,16,-3,59,34,-18,61,60,23,52
54,-16,1,22,8,10,15,59,31,-15,59,60,24,51
61,-11,13,30,4,7,32,65,32,0,63,64,30,55
61,-11,13,30,4,7,32,65,32,0,63,64,30,55
66,14,16,24,8,4,31,63,24,2,64,63,32,60
68,13,20,16,3,1,45,66,24,-6,65,76,33,66
64,6,24,19,-9,-3,64,77,22,-13,64,84,36,57
62,3,23,15,-26,-11,34,73,3,-17,56,66,35,38
62,10,23,10,-37,-14,-8,54,3,-17,46,57,31,42
62,10,23,10,-37,-14,-8,54,3,-17,46,57,31,42
63,8,20,10,-34,-13,-2,40,20,-19,37,61,29,54
54,-24,6,-6,-46,-29,5,35,11,-37,31,49,19,39
34,-32,-7,-34,-73,-49,-13,30,-15,-57,27,31,5,13
25,-22,-7,-29,-69,-40,0,34,-10,-59,31,32,3,13
29,-21,-7,-4,-41,-26,38,38,15,-52,48,32,7,23
29,-18,-12,-2,-14,-24,33,36,28,-42,47,28,0,23
29,-18,-12,-2,-14,-24,33,36,28,-42,47,28,0,23
29,-21,-10,-8,2,-14,4,29,36,-36,32,21,-6,31
34,-13,-3,6,11,9,12,27,49,-27,37,23,3,41
33,-4,2,33,25,30,33,43,59,-15,61,40,12,42
33,3,1,50,32,39,36,56,55,-10,68,43,8,43
44,23,-3,56,15,47,40,51,44,-9,64,30,1,44
57,22,4,58,14,56,64,40,38,-14,64,28,2,46
57,22,4,58,14,56,64,40,38,-14,64,28,2,46
60,28,9,57,36,58,70,36,45,-13,59,31,4,58
60,47,5,58,46,58,39,34,65,-3,61,26,-2,70
66,43,1,61,39,54,10,30,72,1,65,23,-2,65
55,26,1,48,33,38,8,27,57,-17,42,13,0,46
33,7,5,30,27,28,18,21,35,-38,27,8,-3,29
37,16,10,32,24,38,26,32,27,-31,51,29,-3,23
37,16,10,32,24,38,26,32,27,-31,51,29,-3,23
50,28,8,36,30,48,40,47,34,-14,70,41,1,31
52,20,0,38,35,56,59,46,39,-15,71,31,0,43
50,22,-2,43,38,58,60,33,33,-18,72,30,0,55
56,25,1,44,40,48,35,30,32,-14,68,37,2,62
59,35,0,43,34,39,5,37,31,-10,63,35,4,61
57,41,-4,43,26,36,1,27,20,-9,53,27,4,61
57,41,-4,43,26,36,1,27,20,-9,53,27,4,61
59,23,2,29,26,25,18,7,7,-16,36,25,2,59
59,36,11,18,21,8,25,13,0,-19,41,38,15,57
59,51,13,23,5,4,16,34,-3,-21,65,48,34,57
55,39,14,25,-4,11,4,31,-7,-26,61,42,25,54
52,36,16,22,3,21,4,25,-3,-25,44,33,18,51
44,38,10,31,8,33,12,36,3,-24,53,36,24,45
44,38,10,31,8,33,12,36,3,-24,53,36,24,45
27,35,0,34,0,34,20,30,-7,-25,59,42,17,30
28,24,2,35,-2,34,35,27,-10,-31,48,41,17,30
34,26,7,40,11,40,28,37,-3,-27,48,40,24,37
32,32,-7,32,16,33,-2,22,-4,-27,49,34,10,30
29,11,-23,9,11,8,-7,-6,-4,-42,34,17,-9,26
29,11,-23,9,11,8,-7,-6,-4,-42,34,17,-9,26
20,5,-24,-9,4,-9,13,-9,-2,-55,19,0,-8,21
14,9,-11,-6,6,-3,30,-4,-6,-65,22,9,7,6
28,16,-1,17,17,19,48,4,-4,-56,38,32,26,19
43,33,0,33,26,34,62,23,13,-32,51,36,36,50
45,31,9,30,33,32,48,16,29,-23,57,27,29,57
55,36,13,28,32,32,27,-5,34,-18,59,26,26,55
55,36,13,28,32,32,27,-5,34,-18,59,26,26,55
57,41,5,29,31,36,24,-3,25,-15,53,28,27,58
44,32,10,22,30,30,29,2,18,-21,44,26,13,44
42,30,17,18,22,26,39,-5,17,-20,38,23,2,31
63,28,10,30,34,32,61,-1,24,-4,49,29,12,46
82,42,14,33,50,35,71,7,37,10,57,46,26,69
73,38,32,21,45,26,57,0,35,1,47,48,31,63
56,16,36,21,25,14,47,1,20,-23,45,51,38,42
56,16,36,21,25,14,47,1,20,-23,45,51,38,42
50,20,31,18,5,-1,53,12,3,-35,55,59,46,27
56,28,34,3,-5,-4,57,7,-1,-27,59,47,45,30
68,41,30,10,7,19,58,-3,14,-12,55,36,37,44
75,55,26,33,29,37,59,10,28,-1,59,49,37,59
70,52,34,41,34,36,52,29,22,9,69,60,37,65
59,53,42,32,21,41,45,31,7,10,68,61,45,51
59,53,42,32,21,41,45,31,7,10,68,61,45,51
52,44,44,38,6,52,58,33,8,-1,67,72,55,34
48,36,42,53,7,54,79,36,14,-6,76,70,49,27
50,45,35,59,21,54,88,28,12,5,87,57,44,29
64,57,30,65,29,65,97,28,4,18,86,63,48,36
64,62,31,56,29,59,103,25,0,14,75,64,46,35
64,62,31,56,29,59,103,25,0,14,75,64,46,35
43,35,24,23,24,30,78,8,-2,-7,56,43,30,26
40,18,18,8,29,21,54,-2,-5,-11,44,29,28,29
58,45,28,33,50,43,68,-4,1,13,52,27,44,51
72,69,39,49,53,48,94,-3,6,20,64,33,57,66
78,68,35,35,34,30,99,6,0,6,60,49,62,57
69,40,33,28,30,31,100,11,-2,-4,61,55,59,41
48,23,36,25,36,33,97,1,-1,-12,61,39,52,34
48,23,36,25,36,33,97,1,-1,-12,61,39,52,34
45,26,26,7,29,13,71,-5,-7,-22,41,27,48,29
65,29,23,-1,36,15,60,2,-2,-15,31,33,57,36
72,47,42,12,62,36,91,2,13,2,46,33,57,53
64,48,54,29,74,39,130,-3,14,-2,59,28,39,58
61,43,53,36,69,46,132,6,13,-2,60,33,28,55
64,53,45,35,52,56,95,9,12,21,61,33,17,51
64,35,37,31,33,46,62,1,2,21,57,24,-7,46
64,35,37,31,33,46,62,1,2,21,57,24,-7,46
53,21,32,32,25,39,53,10,-10,7,58,20,-26,37
52,25,42,41,31,57,64,34,-16,17,73,34,-32,33
60,22,52,42,30,56,83,40,-26,28,77,51,-37,37
51,18,54,25,11,29,90,33,-35,20,60,53,-34,28
32,-4,58,3,-3,5,71,28,-32,7,42,40,-35,11
17,-27,57,-12,-10,-7,50,19,-40,-2,26,28,-49,3
17,-27,57,-12,-10,-7,50,19,-40,-2,26,28,-49,3
23,-18,56,6,1,16,56,22,-40,6,34,43,-48,21
49,11,59,47,28,55,77,44,-17,35,73,66,-30,49
65,30,60,64,37,68,88,52,-2,50,93,60,-26,53
61,16,56,46,36,62,91,39,2,27,84,38,-36,43
54,1,48,31,47,53,90,31,3,13,79,30,-33,38
56,-5,54,29,54,41,89,32,-3,17,76,32,-24,36
56,-5,54,29,54,41,89,32,-3,17,76,32,-24,36
58,-11,58,25,47,36,84,30,-4,11,66,34,-28,36
56,2,42,24,48,31,77,22,-3,9,49,29,-36,33
58,11,44,31,60,32,86,25,2,19,55,30,-26,37
62,20,67,34,63,47,115,35,14,25,71,50,-2,49
64,17,69,25,60,45,127,32,12,17,47,50,6,55
63,1,59,21,61,25,109,25,1,11,25,35,-6,50
63,1,59,21,61,25,109,25,1,11,25,35,-6,50
63,12,61,21,62,21,83,30,4,18,48,37,-6,51
63,18,51,24,61,39,65,31,4,17,70,44,0,56
66,16,30,36,68,60,57,30,-2,23,60,34,-15,59
68,22,25,50,91,78,73,27,12,62,49,18,-32,74
75,25,35,71,107,110,103,11,35,120,50,3,-32,109
89,52,38,96,114,159,109,7,42,183,51,-4,-28,152
89,52,38,96,114,159,109,7,42,183,51,-4,-28,152
111,85,32,127,139,211,93,28,51,263,60,16,-19,212
137,112,38,169,179,255,88,35,74,349,80,32,-7,273
153,133,49,184,212,273,91,23,95,391,84,29,2,308
155,129,43,165,224,254,105,26,103,383,67,30,9,315
153,130,32,152,214,233,120,32,96,377,60,36,15,314
154,127,32,161,210,243,111,29,92,393,68,37,16,318
158,130,32,179,219,272,88,34,96,410,74,38,17,323
158,130,32,179,219,272,88,34,96,410,74,38,17,323
157,144,20,175,210,260,75,26,91,395,60,35,13,317
162,136,9,150,207,220,79,-13,96,371,34,13,1,317
175,146,10,154,234,238,87,-26,123,386,35,-1,0,331
171,147,9,171,241,270,90,-1,127,392,56,-2,1,326
148,115,-1,162,224,251,94,-1,100,363,57,1,-3,303
147,119,0,158,218,242,109,-6,88,362,51,21,1,296
158,143,10,165,220,259,111,11,94,372,65,40,5,306
151,146,4,159,214,246,84,7,93,357,66,33,1,301
151,146,4,159,214,246,84,7,93,357,66,33,1,301
147,142,-2,166,199,243,60,12,82,352,49,27,7,287
155,144,15,168,195,252,63,40,80,358,45,37,13,283
147,144,19,145,191,228,76,17,79,340,54,31,8,271
145,131,10,146,175,217,87,-14,67,311,68,27,12,249
149,133,5,148,159,218,99,17,56,290,64,46,21,223
149,133,5,148,159,218,99,17,56,290,64,46,21,223
124,119,3,119,163,185,113,32,56,250,48,53,18,194
99,84,10,98,154,146,121,14,48,194,49,38,20,161
103,80,14,79,127,122,111,14,29,146,47,28,31,136
109,81,4,60,123,108,96,15,31,114,37,32,19,125
93,64,-9,61,125,88,87,-2,38,93,37,27,0,103
72,39,-11,51,108,63,90,-5,18,56,43,22,12,69
72,39,-11,51,108,63,90,-5,18,56,43,22,12,69
58,29,2,38,93,59,112,15,2,17,47,42,29,46
50,40,16,45,79,60,139,35,-8,2,55,65,38,26
53,34,13,45,66,43,143,41,-17,-10,65,70,43,9
62,32,-1,28,59,30,118,36,-15,-30,63,64,39,9
60,40,0,20,54,29,104,33,-11,-41,53,51,33,7
38,21,3,9,38,12,111,23,-25,-56,37,45,32,-17
18,9,-4,-21,13,-20,115,13,-40,-86,17,50,33,-50
18,9,-4,-21,13,-20,115,13,-40,-86,17,50,33,-50
27,10,-7,-22,0,-27,115,24,-36,-101,21,49,31,-57
38,19,-1,6,11,-7,122,35,-36,-89,41,45,32,-43
28,23,-7,10,16,0,118,32,-34,-84,45,48,31,-47
19,-8,-16,-3,12,-11,100,29,-24,-104,32,45,28,-61
24,-9,-19,-6,19,-6,91,28,-29,-107,36,43,29,-52
31,19,-17,8,38,12,97,32,-29,-86,54,58,36,-29
37,31,-4,17,46,11,101,47,-5,-77,64,69,43,-26
37,31,-4,17,46,11,101,47,-5,-77,64,69,43,-26
26,18,-1,5,42,0,90,48,-4,-97,54,64,39,-42
0,-28,-19,-25,27,-20,66,32,-39,-133,32,60,28,-68
-15,-42,-27,-41,11,-35,61,28,-57,-142,10,61,30,-95
-6,-17,-20,-36,11,-34,87,29,-40,-129,4,58,46,-93
3,-2,-20,-26,20,-31,103,33,-26,-121,17,62,55,-74
3,-2,-20,-26,20,-31,103,33,-26,-121,17,62,55,-74
4,7,-23,-10,23,-16,82,49,-30,-110,33,78,55,-63
4,1,-21,2,16,0,53,62,-42,-100,39,87,54,-62
-2,-1,-25,-8,15,-14,57,62,-47,-107,36,89,62,-69
-18,0,-27,-29,27,-34,85,53,-36,-117,29,88,65,-69
-31,-5,-29,-24,35,-19,99,37,-25,-106,25,73,51,-66
-28,5,-33,3,36,5,99,47,-23,-88,28,61,47,-61
-34,-3,-33,4,33,-2,86,61,-23,-93,35,62,46,-57
-49,-13,-34,-25,25,-25,60,40,-32,-113,29,52,34,-63
-49,-13,-34,-25,25,-25,60,40,-32,-113,29,52,34,-63
-36,0,-41,-28,27,-30,50,25,-33,-111,24,40,36,-60
-19,14,-44,-5,32,-13,60,38,-24,-91,27,39,41,-47
-28,23,-40,-1,21,-1,67,36,-29,-87,27,33,33,-52
-35,21,-32,0,22,-3,86,30,-31,-94,33,43,39,-55
-29,20,-33,-2,24,-18,94,34,-29,-96,34,53,53,-45
-31,7,-36,-26,10,-35,67,24,-32,-103,10,36,47,-52
-31,7,-36,-26,10,-35,67,24,-32,-103,10,36,47,-52
-30,0,-31,-37,10,-39,49,20,-34,-103,0,36,49,-57
-27,25,-32,-16,18,-31,51,41,-35,-88,20,62,65,-51
-30,24,-34,0,19,-14,54,60,-32,-86,33,68,59,-51
-33,17,-32,0,14,1,60,55,-26,-85,32,48,38,-45
-31,20,-44,-9,12,-13,69,38,-27,-83,19,33,33,-45
-29,5,-53,-14,20,-24,81,30,-30,-92,3,31,36,-58
-39,2,-41,-6,13,-14,94,35,-33,-95,10,33,37,-64
-39,2,-41,-6,13,-14,94,35,-33,-95,10,33,37,-64
-47,4,-26,-1,1,-12,90,40,-35,-96,34,35,45,-58
-44,6,-25,-7,14,-17,72,40,-24,-105,35,37,52,-53
-37,14,-41,-9,37,-18,62,29,-10,-105,13,33,37,-45
-17,22,-40,1,39,-8,73,29,-2,-86,14,31,26,-29
-4,36,-23,12,42,4,92,42,3,-77,30,36,40,-23
-20,24,-28,4,39,-2,99,40,-6,-87,26,27,41,-28
-38,9,-48,-20,26,-25,94,27,-17,-91,2,14,24,-38
-38,9,-48,-20,26,-25,94,27,-17,-91,2,14,24,-38
-31,24,-44,-30,30,-36,79,26,-6,-88,-10,20,28,-36
-22,15,-28,-23,37,-30,65,29,8,-94,0,26,50,-28
-30,0,-22,-30,31,-30,68,31,4,-96,-1,28,63,-32
-35,-4,-24,-44,30,-44,85,23,-5,-94,-20,28,59,-36
-38,-2,-33,-45,30,-60,90,6,-9,-104,-35,19,52,-34
-32,15,-35,-39,24,-55,73,7,-10,-99,-24,18,55,-36
-32,15,-35,-39,24,-55,73,7,-10,-99,-24,18,55,-36
-15,26,-15,-19,34,-30,70,32,8,-75,0,35,62,-24
-8,38,-11,3,47,-10,82,42,19,-60,14,37,57,-13
-9,44,-22,14,44,0,89,36,8,-55,22,32,59,-19
-3,47,-11,22,37,8,96,44,1,-53,27,46,71,-15
2,58,0,24,33,5,90,53,2,-50,24,51,77,-9
-3,48,2,21,27,3,72,59,-1,-55,32,50,80,-23
-4,48,14,30,22,14,63,81,-6,-56,56,76,95,-33
-4,48,14,30,22,14,63,81,-6,-56,56,76,95,-33
-7,51,22,35,22,19,70,95,-6,-47,64,95,99,-27
-18,27,11,14,20,1,75,78,-7,-59,47,76,75,-27
-16,19,-1,-13,10,-14,83,46,-9,-68,11,45,45,-35
0,23,0,-7,18,-2,99,41,5,-52,-3,33,27,-26
-4,21,9,12,40,9,102,53,16,-41,15,43,18,-17
-32,9,16,12,42,5,88,60,8,-52,30,53,10,-21
-46,-11,24,3,34,3,78,60,-5,-57,31,45,-9,-31
-37,-12,17,-1,27,-3,74,57,-4,-52,22,31,-27,-32
-37,-12,17,-1,27,-3,74,57,-4,-52,22,31,-27,-32
-30,-17,6,-12,10,-23,66,53,0,-57,10,27,-41,-28
-33,-25,12,-21,3,-27,54,49,-6,-58,7,26,-45,-30
-26,-28,28,-18,20,-11,55,52,-5,-53,14,30,-37,-25
-21,-49,34,-22,26,-17,61,53,4,-58,11,37,-33,-24
-34,-52,30,-29,13,-32,60,48,0,-59,8,39,-31,-35
-24,-26,37,-6,22,-16,61,63,2,-42,32,54,-17,-18
4,-3,51,15,31,1,64,90,18,-27,57,75,4,2
4,-3,51,15,31,1,64,90,18,-27,57,75,4,2
-4,-19,46,-12,14,-21,66,82,4,-47,41,67,-4,-25
-37,-62,26,-45,-4,-43,66,39,-27,-84,4,33,-31,-56
-40,-58,14,-40,-6,-40,49,23,-20,-83,-5,16,-32,-42
-22,-42,23,-24,9,-29,25,44,4,-56,9,27,-23,-26
-9,-41,29,-12,26,-15,33,58,2,-38,14,33,-26,-24
-1,-20,30,6,28,3,53,59,-3,-34,23,31,-24,-15
-5,-12,30,17,24,9,50,56,5,-31,36,30,-22,-14
-5,-12,30,17,24,9,50,56,5,-31,36,30,-22,-14
-22,-16,27,9,29,2,46,46,1,-27,21,24,-32,-25
-28,-19,28,6,25,6,62,36,-4,-30,1,24,-25,-30
-13,-22,26,7,15,10,61,29,-2,-28,3,29,-13,-33
-9,-20,25,1,20,3,34,39,-7,-27,7,29,-18,-32
-25,-31,31,-4,25,-4,24,58,-9,-38,17,35,-18,-29
-34,-29,31,-9,15,-9,27,47,-11,-39,18,35,-20,-34
-18,-23,26,-9,22,-9,25,25,-6,-23,5,25,-30,-24
3,-15,35,7,52,8,43,39,18,-10,9,28,-20,3
10,5,51,26,70,27,81,58,35,-3,24,36,-2,10
10,5,51,26,70,27,81,58,35,-3,24,36,-2,10
0,-8,54,32,72,31,106,57,31,-11,24,37,-1,2
-24,-19,47,26,66,28,100,57,27,-23,22,37,1,-6
-35,-11,32,24,51,23,64,51,22,-24,24,31,5,-20
-13,-8,24,29,48,20,31,53,17,-21,25,28,-7,-16
11,8,37,34,53,25,38,72,23,-10,34,44,1,12
4,1,59,25,41,33,58,76,31,-10,42,46,21,6
-10,-18,56,15,25,25,52,59,20,-26,29,30,19,-21
-10,-18,56,15,25,25,52,59,20,-26,29,30,19,-21
-9,-13,38,14,24,4,44,46,1,-26,14,27,3,-15
6,5,33,14,26,0,52,43,6,-16,15,32,-3,8
15,16,32,14,25,14,58,50,21,-13,23,32,6,8
4,5,34,23,22,24,68,62,17,-16,24,36,24,-7
-12,3,42,26,3,15,79,60,-2,-18,16,34,28,-15
-12,3,42,26,3,15,79,60,-2,-18,16,34,28,-15
-20,4,40,7,-10,-3,63,44,-6,-23,5,23,7,-16
-5,-7,33,-1,6,-4,39,41,19,-15,7,24,-1,-4
11,5,32,15,29,20,44,54,39,7,17,30,9,15
9,10,33,32,37,36,64,62,40,11,24,32,5,23
8,6,31,36,34,35,65,59,40,8,27,33,0,21
17,19,30,38,34,41,63,56,44,18,29,30,6,17
17,19,30,38,34,41,63,56,44,18,29,30,6,17
20,19,24,42,37,45,71,59,40,18,24,32,6,17
1,6,15,30,20,35,68,49,26,0,10,23,-6,3
-22,-16,9,19,-1,24,35,30,14,-14,2,8,-12,-17
-22,-18,2,20,-5,21,5,40,2,-14,1,15,-6,-18
-7,4,-2,24,0,19,-2,57,-2,-13,3,29,1,-9
10,7,3,25,11,21,0,47,15,-10,2,28,0,1
13,9,0,21,24,27,4,33,28,3,-2,15,-7,8
13,9,0,21,24,27,4,33,28,3,-2,15,-7,8
6,5,-1,10,32,24,26,39,29,5,0,7,-1,11
-3,-12,24,2,36,16,56,38,40,-11,-2,2,12,6
-4,-7,35,5,34,13,51,23,49,-17,-6,-5,11,-3
6,10,17,25,30,31,33,31,40,2,13,4,2,4
14,28,14,46,34,45,25,59,31,21,37,27,2,21
8,20,14,41,22,37,9,66,30,8,38,34,5,18
2,-1,1,22,1,21,10,54,29,-14,27,25,13,-2
8,9,9,20,2,22,23,54,21,-15,26,37,31,-4
8,9,9,20,2,22,23,54,21,-15,26,37,31,-4
17,16,30,36,14,35,17,64,15,-4,32,45,33,16
14,19,34,34,21,31,8,59,21,5,29,35,30,24
9,19,26,12,22,10,10,43,25,-1,14,28,32,12
6,3,11,-6,15,-3,5,23,18,-17,-5,12,12,5
2,4,-2,-10,3,-6,1,13,13,-17,-14,-9,-4,-1
1,6,0,-4,-6,-10,-9,21,9,-17,-11,-6,2,-15
1,6,0,-4,-6,-10,-9,21,9,-17,-11,-6,2,-15
-2,3,1,-3,-12,-16,-38,28,-2,-25,-3,15,7,-23
-5,-1,-4,-12,-9,-11,-40,28,-3,-23,-5,18,10,-9
13,0,1,-7,1,0,-15,27,15,-10,-8,9,16,2
24,27,-2,17,7,14,2,32,25,7,-4,6,18,-3
13,38,-5,34,21,29,15,40,29,17,3,8,26,-4
10,26,10,32,29,35,12,38,28,11,3,19,34,-3
10,26,10,32,29,35,12,38,28,11,3,19,34,-3
23,23,21,27,24,27,2,32,28,7,-8,22,34,-2
23,27,13,35,22,36,0,38,34,24,-10,16,33,4
19,42,-2,45,23,50,-5,38,26,39,-8,15,33,1
29,44,0,45,24,43,4,31,24,31,-20,15,25,3
33,43,22,42,31,41,34,43,48,30,-30,19,33,13
23,44,27,36,35,48,34,50,60,33,-24,30,50,12
19,27,8,28,30,36,-6,29,38,22,-30,29,44,0
19,27,8,28,30,36,-6,29,38,22,-30,29,44,0
25,38,0,23,26,21,-32,22,27,24,-53,15,28,-6
27,47,2,28,23,25,-33,31,34,25,-61,6,25,-1
13,35,4,30,20,29,-18,32,32,10,-54,6,29,-2
4,35,22,25,16,28,9,32,29,0,-54,12,35,-18
9,23,37,30,14,31,16,38,30,-7,-55,16,43,-28
10,18,26,34,6,25,-12,35,28,-10,-59,3,39,-28
4,22,15,26,0,27,-31,32,26,-9,-60,-5,26,-29
4,22,15,26,0,27,-31,32,26,-9,-60,-5,26,-29
-1,22,16,16,-3,31,-14,34,13,-18,-60,3,26,-37
-15,13,16,1,-21,9,-1,30,-7,-33,-72,2,36,-53
-26,-14,24,-18,-35,-21,-1,28,-9,-40,-87,0,37,-63
-13,-12,30,-24,-21,-25,-5,26,7,-31,-100,1,29,-52
4,10,30,-15,-2,-8,-23,20,15,-14,-102,0,37,-32
2,17,31,7,6,12,-36,26,19,-1,-79,6,48,-29
-7,24,34,24,12,23,-19,35,28,10,-62,9,39,-32
-7,24,34,24,12,23,-19,35,28,10,-62,9,39,-32
4,23,37,17,22,17,-4,32,26,17,-75,4,32,-25
3,10,24,-2,17,1,-26,21,16,2,-94,-5,35,-28
-18,-8,14,-14,5,-10,-46,21,22,-16,-98,-10,31,-44
-16,-8,28,-2,13,1,-29,28,32,-8,-95,-5,34,-45
0,13,37,16,28,27,-8,32,30,7,-88,3,57,-30
2,4,29,14,20,30,-13,28,28,6,-83,4,59,-21
2,4,29,14,20,30,-13,28,28,6,-83,4,59,-21
-5,-5,22,-3,-1,12,-32,23,26,2,-91,1,35,-29
-5,1,23,-6,-3,14,-45,26,22,-3,-92,3,39,-35
6,4,33,18,18,35,-38,34,33,3,-71,11,63,-18
13,24,41,26,24,38,-29,38,34,24,-70,12,70,-3
10,30,39,13,11,26,-25,26,26,29,-93,6,60,-18
19,31,42,14,9,24,-11,27,42,23,-89,6,61,-36
31,43,45,34,31,37,-7,53,64,27,-60,21,77,-29
14,23,49,40,41,43,-17,70,52,23,-47,32,80,-22
14,23,49,40,41,43,-17,70,52,23,-47,32,80,-22
-13,-1,54,21,20,30,-24,63,31,7,-52,25,66,-46
-9,-3,47,5,1,26,-18,56,29,-2,-57,2,58,-68
12,19,33,11,-1,32,-10,59,31,10,-63,-4,56,-53
27,40,28,23,6,32,-1,61,31,30,-63,14,40,-30
36,34,37,28,7,45,-7,71,34,34,-53,27,25,-25
24,28,52,29,-1,66,-29,87,30,38,-38,28,32,-30
24,28,52,29,-1,66,-29,87,30,38,-38,28,32,-30
4,12,66,25,-3,56,-34,91,28,46,-35,31,28,-27
12,5,68,22,-8,32,-23,87,37,46,-37,31,6,-13
33,23,69,22,-18,31,-8,83,33,45,-38,26,-3,-7
27,8,70,10,-23,26,4,83,18,37,-48,29,-9,-24
1,-23,60,-9,-30,10,3,82,16,21,-53,29,-25,-42
-9,-29,56,-3,-25,13,-2,81,27,19,-37,26,-29,-39
1,-15,69,20,-7,32,-14,84,34,34,-24,29,-21,-31
10,-3,72,33,1,41,-31,89,34,39,-25,28,-20,-27
10,-3,72,33,1,41,-31,89,34,39,-25,28,-20,-27
10,-18,70,26,0,41,-35,93,35,33,-20,27,-23,-25
-3,-29,75,12,-11,40,-23,93,29,34,-16,33,-19,-33
-7,-30,76,15,-23,31,-1,90,21,26,-25,35,-6,-38
12,-27,65,26,-10,30,5,83,36,21,-24,32,-8,-34
32,3,54,34,-6,49,-27,79,43,42,-14,30,-26,-29
32,7,57,34,-26,56,-54,81,34,55,-17,27,-30,-24
32,7,57,34,-26,56,-54,81,34,55,-17,27,-30,-24
25,-18,72,19,-19,29,-39,82,36,36,-24,27,-11,-27
23,-29,87,17,2,24,-26,90,40,19,-8,38,4,-30
28,-11,91,38,-7,55,-26,97,41,28,12,55,0,-21
45,24,75,45,-19,64,-21,94,52,51,6,58,-1,-2
58,20,72,37,-11,47,-14,94,64,56,3,45,1,3
41,-6,77,30,-19,34,-26,89,62,32,3,31,-11,-18
41,-6,77,30,-19,34,-26,89,62,32,3,31,-11,-18
17,-27,65,6,-42,25,-52,65,53,10,-12,17,-22,-41
24,-34,68,-6,-44,23,-55,61,53,18,-18,16,-9,-32
44,-16,84,14,-29,28,-36,82,61,34,-6,29,7,-15
44,-15,76,27,-24,31,-26,79,64,29,4,33,2,-17
29,-18,67,19,-38,35,-23,70,48,30,2,30,0,-21
20,-19,78,15,-55,32,-26,83,31,40,-1,36,10,-24
24,-24,78,23,-53,34,-45,98,31,41,11,58,17,-24
24,-24,78,23,-53,34,-45,98,31,41,11,58,17,-24
42,4,71,32,-34,48,-55,109,46,51,31,80,28,-6
64,14,84,35,-17,52,-37,116,65,65,38,77,36,11
53,-12,84,19,-23,35,-26,104,64,42,22,63,26,-4
11,-28,70,-3,-36,16,-40,76,55,0,2,50,18,-34
5,-29,63,-4,-32,12,-62,67,57,-3,-4,35,18,-36
39,-6,57,10,-23,25,-74,76,61,26,9,26,14,-15
57,12,54,27,-24,48,-71,73,63,41,26,30,6,4
57,12,54,27,-24,48,-71,73,63,41,26,30,6,4
44,4,56,40,-31,57,-59,64,62,33,31,33,7,-4
23,-12,55,28,-39,40,-49,64,49,10,23,27,19,-31
9,-24,65,12,-41,32,-43,65,37,-8,19,32,24,-38
13,1,78,28,-38,55,-65,70,43,16,34,45,27,-18
32,32,77,56,-26,86,-89,92,60,56,60,63,40,7
42,34,79,71,-17,97,-77,104,66,61,76,88,60,17
39,24,84,65,-20,86,-71,96,56,53,71,92,60,5
39,24,84,65,-20,86,-71,96,56,53,71,92,60,5
29,0,74,44,-28,60,-84,88,55,46,52,65,38,-18
7,-17,64,12,-38,35,-81,71,52,33,29,37,26,-34
-4,-24,68,2,-36,30,-63,60,37,21,25,35,32,-34
15,-19,67,16,-16,44,-60,65,46,24,34,37,25,-20
29,2,55,25,1,51,-75,64,65,44,29,28,6,-6
30,6,54,26,6,49,-88,59,73,51,24,31,7,4
31,17,57,30,16,56,-95,56,81,53,30,35,19,11
31,17,57,30,16,56,-95,56,81,53,30,35,19,11
34,24,54,29,18,53,-91,44,81,51,28,25,20,9
32,14,50,24,-4,35,-90,43,63,40,25,16,19,-3
34,19,52,26,-13,41,-94,58,56,45,36,22,26,-5
34,14,57,33,2,62,-96,64,64,53,55,35,28,1
26,6,61,31,6,60,-92,62,63,43,57,36,29,-1
23,14,59,30,1,51,-87,56,59,43,44,31,32,-5
33,23,41,33,10,51,-79,38,65,59,34,25,26,3
33,23,41,33,10,51,-79,38,65,59,34,25,26,3
36,33,34,26,22,47,-66,25,75,57,25,22,33,18
37,25,53,22,30,42,-61,41,85,46,27,21,49,25
52,26,65,30,33,49,-65,60,91,58,52,36,51,22
55,40,62,35,26,58,-71,62,84,63,62,55,51,19
48,34,60,36,17,60,-75,57,79,56,50,46,49,20
52,39,55,31,20,55,-68,53,78,57,45,28,40,22
52,39,55,31,20,55,-68,53,78,57,45,28,40,22
55,48,55,35,36,59,-48,58,77,59,59,36,42,28
34,39,64,50,40,65,-42,64,72,54,66,44,45,19
24,36,52,45,20,62,-69,58,66,48,58,30,30,4
50,44,43,39,19,62,-83,50,76,56,52,22,21,19
69,63,52,52,35,66,-74,55,90,72,54,27,35,37
63,59,45,49,26,66,-81,57,89,65,61,31,44,28
63,59,45,49,26,66,-81,57,89,65,61,31,44,28
52,42,36,31,11,60,-96,53,78,45,60,33,48,14
54,47,48,27,24,53,-93,58,80,50,53,32,59,21
64,57,48,35,31,56,-89,56,93,64,56,32,54,31
71,77,29,38,23,58,-99,38,91,72,61,27,39,32
56,69,28,38,25,44,-110,28,79,63,50,7,34,27
32,40,36,27,27,30,-107,32,76,41,38,3,32,17
32,43,34,17,26,33,-87,45,85,46,52,27,34,12
32,43,34,17,26,33,-87,45,85,46,52,27,34,12
45,43,35,27,38,39,-73,65,90,57,71,44,48,22
42,33,34,27,44,34,-91,67,87,48,64,36,50,21
31,30,31,12,37,32,-119,43,85,43,55,24,45,7
37,36,30,16,33,37,-122,32,88,51,62,27,46,9
40,47,29,22,29,33,-107,35,79,54,59,27,44,12
41,43,29,24,29,35,-90,32,69,54,56,13,37,18
48,43,31,27,43,44,-87,32,77,54,62,5,39,24
48,43,31,27,43,44,-87,32,77,54,62,5,39,24
40,27,32,17,51,28,-94,33,96,38,53,0,38,13
26,9,37,-2,45,7,-93,33,95,26,43,4,33,-5
28,28,38,-4,41,13,-86,33,83,30,48,18,37,-1
36,30,35,-4,38,13,-94,27,86,27,42,11,42,5
26,20,40,-14,30,-3,-110,18,88,24,20,-8,50,-3
21,30,49,-6,29,-1,-104,25,76,30,19,5,66,-2
29,30,54,6,30,17,-84,40,67,36,43,33,75,1
29,30,54,6,30,17,-84,40,67,36,43,33,75,1
20,26,47,2,26,26,-86,39,69,38,52,31,68,-11
9,23,38,0,27,30,-103,31,72,34,49,11,57,-21
15,23,41,16,32,37,-103,30,64,37,58,-1,57,-13
15,25,39,21,21,36,-95,26,61,39,53,-5,58,-12
5,19,37,9,7,28,-99,28,65,33,36,5,56,-18
12,26,36,6,6,30,-92,40,64,34,38,20,68,-9
12,26,36,6,6,30,-92,40,64,34,38,20,68,-9
25,22,40,6,7,27,-65,29,60,33,33,15,75,-2
15,15,42,-5,8,7,-54,10,62,19,11,-6,65,-4
-1,17,41,-10,20,7,-65,16,61,16,20,-12,61,-7
9,7,35,2,30,23,-63,26,65,17,39,-3,61,-10
25,26,26,13,30,26,-43,22,75,24,30,-4,55,-10
33,43,33,17,37,29,-16,10,85,39,21,-2,53,8
35,26,37,15,42,30,-8,-5,83,44,13,-1,51,14
35,26,37,15,42,30,-8,-5,83,44,13,-1,51,14
26,24,30,10,26,22,-30,-3,68,41,5,-8,44,1
28,40,34,27,30,42,-39,35,76,51,37,7,56,13
51,65,54,59,56,73,-18,69,104,74,76,45,88,35
61,66,67,60,55,69,-1,69,104,74,76,65,99,33
47,55,62,40,41,53,0,64,88,59,64,58,92,21
39,61,59,37,43,56,-7,60,78,63,57,46,88,24
38,58,60,49,39,60,-19,44,72,74,48,39,71,24
38,58,60,49,39,60,-19,44,72,74,48,39,71,24
31,55,57,42,26,48,-35,29,67,71,41,34,44,18
33,48,53,26,29,33,-39,31,71,59,36,21,26,24
41,35,54,27,36,28,-15,23,78,54,30,4,13,30
35,24,55,20,32,26,0,-1,75,40,22,-6,-5,17
25,1,62,9,35,23,-17,6,67,25,25,-7,-8,6
24,-4,77,10,30,31,-28,35,66,28,38,14,2,15
24,-4,77,10,30,31,-28,35,66,28,38,14,2,15
19,-4,71,9,9,29,-28,39,57,34,41,25,-10,14
11,-17,66,-5,-6,9,-32,26,38,25,35,13,-31,0
18,-12,76,-5,-6,11,-20,27,37,28,32,11,-33,-2
34,-7,78,23,6,32,6,33,57,53,39,16,-28,15
34,-6,76,34,20,36,5,32,60,60,50,8,-33,20
21,-11,85,29,27,38,-11,27,49,56,51,4,-33,8
21,-11,85,29,27,38,-11,27,49,56,51,4,-33,8
21,-14,89,33,30,54,5,31,49,70,49,22,-29,12
30,0,84,38,30,53,31,45,55,82,56,26,-28,31
35,-4,87,26,30,38,22,46,60,68,51,15,-28,30
22,-18,74,5,28,21,-2,22,59,49,20,-1,-37,7
4,-30,57,-13,21,3,-10,-3,45,31,-7,-27,-41,-5
-4,-47,69,-15,15,0,4,-9,34,17,-6,-35,-36,-5
4,-21,88,5,23,21,21,12,42,48,11,-5,-20,6
4,-21,88,5,23,21,21,12,42,48,11,-5,-20,6
27,16,99,33,40,54,36,46,63,86,36,34,-1,37
40,13,97,36,40,60,29,57,67,72,52,39,3,41
25,-8,91,21,27,33,6,50,50,48,57,34,-1,10
14,-17,95,23,25,24,0,57,36,49,66,41,1,-2
19,-2,95,28,21,41,15,60,29,53,66,35,1,0
27,2,88,27,13,45,24,45,29,50,63,27,-5,3
29,-6,86,29,20,39,10,35,32,58,64,35,-6,8
29,-6,86,29,20,39,10,35,32,58,64,35,-6,8
17,-8,90,26,31,37,-1,32,39,64,46,28,-6,10
16,-22,92,22,42,33,3,29,52,57,32,5,-7,15
34,-12,89,28,52,43,0,28,57,67,42,4,0,30
54,8,86,37,57,57,10,30,58,86,54,12,4,39
55,14,86,41,61,62,34,31,67,84,57,7,0,37
35,8,85,37,56,56,38,28,55,72,56,-2,4,30
20,-7,92,29,38,41,32,30,35,66,60,9,21,23
20,-7,92,29,38,41,32,30,35,66,60,9,21,23
23,1,91,26,31,35,21,34,37,68,55,28,26,24
28,14,69,27,35,35,0,26,40,65,36,24,8,30
26,12,67,27,35,33,4,16,37,59,32,17,0,25
34,22,82,27,37,42,25,23,42,67,39,27,19,24
31,14,84,30,44,55,17,31,43,61,40,27,30,31
6,3,72,28,37,42,-9,26,31,40,42,15,17,21
-8,6,63,25,32,30,-11,27,30,39,50,14,14,3
-8,6,63,25,32,30,-11,27,30,39,50,14,14,3
3,7,72,27,47,47,20,34,37,56,57,22,22,9
10,8,85,27,58,55,36,31,44,54,52,23,28,24
4,-3,75,23,61,49,16,26,61,44,43,17,23,25
8,-3,57,29,61,47,-6,27,69,59,43,13,5,27
9,9,57,31,55,49,-5,23,49,68,44,11,1,30
5,8,61,29,48,56,11,14,32,63,42,13,19,34
16,25,59,43,49,62,23,20,46,80,42,20,34,46
16,25,59,43,49,62,23,20,46,80,42,20,34,46
22,28,62,54,57,69,14,30,56,95,45,27,29,54
-1,11,61,39,56,64,-2,27,46,78,41,24,29,40
-8,11,64,24,50,55,-1,31,50,67,49,25,36,33
22,22,71,37,50,65,5,41,63,86,65,33,35,49
25,30,64,47,47,73,10,35,52,94,62,28,31,54
6,24,61,47,49,71,22,28,50,83,61,22,31,51
6,24,61,47,49,71,22,28,50,83,61,22,31,51
19,31,75,65,70,85,13,40,77,88,64,31,27,68
38,46,77,63,80,90,-2,32,84,93,49,34,12,82
33,38,65,41,71,67,16,3,77,81,30,20,-3,79
26,35,72,38,73,58,38,6,81,84,24,13,1,77
24,28,91,50,78,69,35,30,85,89,34,21,9,76
13,15,92,50,65,68,22,30,78,76,45,26,8,61
13,25,84,52,56,71,21,19,67,74,52,22,14,53
13,25,84,52,56,71,21,19,67,74,52,22,14,53
30,40,93,68,62,83,37,30,68,89,60,24,20,65
35,52,93,65,63,84,42,42,68,98,61,32,9,74
23,39,68,44,56,69,13,34,61,89,48,30,-4,66
15,23,57,37,54,59,-14,28,61,68,39,24,-8,54
21,43,82,53,63,75,9,47,66,78,54,44,1,65
39,57,95,70,72,97,36,75,74,109,72,71,18,91
49,66,73,67,66,97,14,58,74,118,66,53,14,99
49,66,73,67,66,97,14,58,74,118,66,53,14,99
41,67,58,61,58,86,-14,22,66,106,49,26,-3,88
30,50,63,61,55,74,-6,16,59,92,37,27,-8,82
30,43,61,46,51,60,1,10,59,81,28,14,-9,78
33,40,56,29,49,53,-2,-5,65,72,20,-3,-20,68
30,50,63,39,54,57,9,6,74,80,17,11,-23,74
29,52,63,47,54,61,2,21,86,90,23,22,-15,90
32,44,54,40,54,60,-28,23,91,95,28,22,-14,91
32,44,54,40,54,60,-28,23,91,95,28,22,-14,91
29,56,53,41,52,58,-31,22,81,95,27,31,-13,75
17,47,59,48,37,60,-5,16,66,83,27,29,-7,64
15,36,61,52,22,69,14,11,56,87,28,15,-5,68
22,47,62,68,24,84,9,28,57,99,34,23,-1,75
16,44,67,72,28,84,-10,43,59,95,45,42,6,72
-2,27,63,31,13,47,-33,25,50,66,24,24,-2,55
4,17,58,5,3,23,-31,3,46,46,-6,-4,-15,54
4,17,58,5,3,23,-31,3,46,46,-6,-4,-15,54
29,35,57,29,30,58,-12,10,67,69,7,9,-11,75
36,51,56,53,56,80,1,26,82,96,32,33,-3,91
39,40,59,51,49,67,7,31,77,89,41,35,-4,91
43,53,62,53,37,71,-2,30,68,77,54,29,-2,86
39,57,62,61,37,89,-20,38,71,84,65,31,-2,89
43,54,68,72,38,93,-28,50,77,94,70,48,3,95
43,54,68,72,38,93,-28,50,77,94,70,48,3,95
50,70,73,78,35,92,-23,51,69,103,66,57,12,96
41,59,64,63,19,77,-18,32,48,92,45,39,-1,88
35,54,40,40,8,53,-24,18,37,68,24,25,-7,80
48,70,32,37,21,52,-32,26,53,75,28,39,13,90
52,74,47,48,28,59,-35,29,63,88,41,38,13,98
52,76,57,57,25,71,-16,27,58,90,55,27,3,92
61,78,54,75,36,90,10,29,66,100,64,33,10,104
61,78,54,75,36,90,10,29,66,100,64,33,10,104
58,75,54,79,37,90,7,30,74,108,60,30,13,117
56,64,56,65,34,80,-7,32,75,100,57,23,7,105
58,63,57,61,48,81,-3,25,77,92,60,35,7,93
41,62,47,54,44,70,1,6,77,83,30,30,5,86
28,39,34,34,33,52,-4,-5,68,62,0,5,-2,73
34,49,46,28,44,57,-4,2,59,67,11,16,7,77
35,64,55,31,52,54,0,5,61,78,16,32,10,90
35,64,55,31,52,54,0,5,61,78,16,32,10,90
33,52,38,21,51,31,-3,-6,67,67,-1,16,-4,85
50,60,33,19,49,40,-4,-3,70,72,3,13,-8,88
64,68,56,41,46,67,-2,20,69,94,34,34,-12,100
58,63,68,52,47,70,1,41,63,98,56,41,-20,95
48,46,67,41,48,63,4,29,62,78,55,21,-38,90
42,25,66,32,43,66,6,2,66,69,47,-2,-58,94
35,26,60,41,39,76,13,7,66,76,48,4,-64,89
33,21,66,55,44,86,27,25,63,84,63,31,-60,89
33,21,66,55,44,86,27,25,63,84,63,31,-60,89
46,18,81,60,54,93,33,19,65,95,65,35,-59,103
56,28,90,55,54,86,26,4,60,98,52,23,-57,105
56,32,93,44,34,71,23,9,44,91,51,31,-48,95
53,34,90,33,21,58,30,8,30,91,57,35,-44,93
58,15,88,31,30,56,32,2,27,84,51,28,-39,96
54,7,86,27,30,60,27,0,28,74,41,38,-31,91
52,33,92,24,17,54,24,-2,16,88,46,55,-30,89
52,33,92,24,17,54,24,-2,16,88,46,55,-30,89
65,53,96,45,14,63,31,13,7,108,62,60,-29,98
66,61,89,74,21,96,22,32,2,112,76,58,-25,106
64,53,87,94,32,125,7,29,5,119,94,61,-32,116
82,62,93,113,30,138,18,31,23,131,110,62,-31,121
98,78,98,118,31,140,24,54,33,133,121,64,-6,121
82,64,97,102,40,134,19,62,31,119,129,74,3,118
59,50,89,90,35,117,15,47,27,107,116,69,-15,102
59,50,89,90,35,117,15,47,27,107,116,69,-15,102
54,37,85,85,27,103,7,34,20,103,97,58,-23,89
55,26,91,70,35,95,9,31,16,101,92,60,-20,89
59,31,91,61,47,91,27,31,37,89,94,61,-16,95
69,27,96,63,61,90,30,30,65,83,94,56,-6,99
61,26,106,57,58,84,4,30,54,88,90,59,-3,95
43,29,103,59,39,83,-9,36,26,88,91,64,-7,85
47,41,94,70,39,94,13,35,26,96,101,62,-1,101
64,59,93,67,50,94,26,29,38,116,95,58,1,117
64,59,93,67,50,94,26,29,38,116,95,58,1,117
66,46,93,59,42,80,13,35,33,111,73,59,-2,110
59,31,90,57,41,76,10,31,25,100,70,51,5,100
58,36,88,61,54,85,38,8,28,104,84,33,0,101
64,51,89,70,60,92,55,12,36,108,89,27,-6,108
66,59,90,67,62,92,32,24,37,102,88,30,-3,104
55,31,90,57,61,85,6,3,24,84,88,26,-1,86
44,19,92,59,57,81,5,4,19,77,90,36,11,77
44,19,92,59,57,81,5,4,19,77,90,36,11,77
51,34,96,54,64,85,18,28,30,87,87,58,33,90
65,38,103,46,66,77,30,18,35,96,81,59,39,95
66,44,103,47,55,60,39,8,22,94,79,52,35,88
64,39,95,44,49,62,29,29,13,84,81,62,40,93
56,36,88,38,42,63,-3,29,6,79,75,62,35,83
37,42,85,46,27,57,-10,21,-11,80,72,48,29,61
37,42,85,46,27,57,-10,21,-11,80,72,48,29,61
43,39,85,61,27,69,10,29,-13,84,80,58,31,61
65,46,89,58,46,86,20,27,7,95,82,66,34,83
74,46,95,60,63,90,30,26,24,105,84,63,46,96
76,45,95,75,63,94,38,34,28,109,91,76,62,93
74,50,90,85,55,105,18,33,23,116,92,89,63,88
84,66,99,99,66,118,6,40,33,132,111,93,67,99
107,107,109,124,84,129,24,64,54,144,142,115,88,118
107,107,109,124,84,129,24,64,54,144,142,115,88,118
116,108,107,126,98,132,36,70,66,139,144,127,92,127
107,83,111,99,107,121,47,64,68,121,128,107,80,120
95,74,119,82,104,97,69,60,63,101,122,93,84,108
75,46,107,68,97,74,65,45,52,77,106,85,83,87
53,25,80,32,81,56,25,17,36,61,69,57,54,62
56,31,61,14,72,41,-4,-4,31,62,39,27,29,61
76,41,58,26,76,42,-6,-13,33,75,34,26,42,85
76,41,58,26,76,42,-6,-13,33,75,34,26,42,85
79,41,72,25,73,45,3,-10,30,78,39,43,73,93
70,43,93,26,61,54,5,12,25,83,57,65,90,86
67,61,87,46,56,69,-2,32,24,97,78,78,96,82
71,58,73,50,61,71,-7,33,32,84,79,73,95,70
66,41,73,44,72,73,2,27,35,63,77,60,89,58
59,37,72,46,77,75,13,22,32,63,81,52,88,52
59,37,72,46,77,75,13,22,32,63,81,52,88,52
57,23,63,52,73,77,10,23,35,62,87,56,90,43
54,27,60,55,70,81,-1,32,35,67,90,61,97,39
56,38,65,47,63,75,-5,25,20,71,84,63,113,40
63,29,62,28,39,52,2,13,12,58,67,64,124,30
65,34,57,16,24,44,-7,17,12,57,45,61,123,21
68,51,63,29,33,59,-29,19,7,82,39,61,121,31
76,77,76,43,50,62,-24,16,16,98,46,73,133,40
91,83,81,38,55,59,-2,26,26,89,58,83,149,37
91,83,81,38,55,59,-2,26,26,89,58,83,149,37
90,63,81,38,40,58,1,38,13,72,71,89,151,26
69,60,77,47,26,57,0,39,1,65,77,93,148,7
56,55,72,45,32,65,0,37,9,61,73,81,150,-6
53,54,79,46,37,75,-16,34,14,62,72,63,150,-7
52,65,82,53,46,74,-17,34,18,68,74,58,148,-1
65,64,72,47,59,64,9,38,35,65,68,62,145,3
65,64,72,47,59,64,9,38,35,65,68,62,145,3
79,64,63,36,61,61,1,29,40,64,57,59,143,3
73,59,56,39,63,64,-28,12,33,70,46,46,138,3
62,57,48,36,67,61,-23,-1,45,65,36,30,128,3
62,55,51,18,60,44,-12,-5,52,47,24,20,123,1
66,53,58,15,56,31,-14,2,42,48,15,24,122,4
71,74,55,25,56,47,-14,21,33,70,18,33,123,14
71,74,55,25,56,47,-14,21,33,70,18,33,123,14
71,73,59,33,53,61,-14,35,44,68,28,46,134,14
63,49,61,18,46,40,-33,30,47,44,13,56,150,0
61,42,57,-3,46,22,-42,24,34,41,-9,54,156,-8
69,46,60,5,56,29,-14,27,38,46,-3,56,151,3
65,52,59,21,52,31,7,26,42,45,2,53,150,-5
56,44,58,29,44,35,5,20,33,44,-3,40,150,-23
55,43,61,28,55,56,-3,16,38,49,-2,34,143,-14
55,43,61,28,55,56,-3,16,38,49,-2,34,143,-14
54,62,59,28,56,64,-9,14,53,57,-3,34,140,1
62,68,57,45,47,63,-13,24,52,63,1,40,147,3
77,78,59,61,51,74,-10,29,47,71,17,49,152,-1
82,86,60,60,63,88,1,29,60,79,33,64,159,5
88,90,66,63,62,96,2,49,68,89,40,81,167,22
90,96,63,68,55,91,-9,58,55,91,30,80,161,26
75,80,44,48,39,64,-21,38,41,71,8,54,143,9
75,80,44,48,39,64,-21,38,41,71,8,54,143,9
63,76,35,26,25,39,-23,25,27,56,-8,35,142,-3
55,66,40,24,24,31,-23,20,11,44,-20,31,151,-13
36,37,38,21,18,29,-33,1,9,26,-32,12,139,-37
34,44,26,21,21,35,-40,-2,24,35,-25,6,126,-32
58,63,32,35,46,54,-31,23,37,59,1,28,127,1
64,67,42,38,57,64,-12,26,36,60,3,36,128,5
64,67,42,38,57,64,-12,26,36,60,3,36,128,5
51,55,36,28,42,55,-4,5,33,49,-18,18,131,-9
45,40,45,22,37,38,-15,-5,39,42,-30,14,136,-7
48,47,55,20,47,27,-31,10,36,41,-33,25,139,-9
55,58,45,26,57,43,-29,32,39,52,-27,37,135,-2
61,72,42,36,64,60,-15,35,51,70,-18,44,132,15
57,66,55,27,55,43,-8,19,48,65,-21,38,118,13
58,43,63,7,42,26,-13,11,35,47,-30,27,97,-3
58,43,63,7,42,26,-13,11,35,47,-30,27,97,-3
52,42,71,1,39,25,-29,23,32,46,-35,23,91,-9
39,37,88,12,44,28,-37,29,38,53,-30,26,88,-5
38,38,88,34,49,47,-26,25,49,67,-14,30,71,-3
52,56,88,56,65,73,-9,40,57,87,7,38,60,6
61,44,99,69,70,78,-14,62,59,89,27,59,66,12
42,18,96,54,43,63,-39,51,53,65,15,64,52,0
31,4,84,30,25,48,-43,24,50,47,-20,39,23,-5
31,4,84,30,25,48,-43,24,50,47,-20,39,23,-5
51,16,88,33,30,45,-19,20,52,60,-28,27,21,14
62,28,106,44,34,59,-5,37,61,81,-2,48,44,26
46,13,123,44,37,66,-14,48,70,80,11,64,58,22
28,12,122,38,31,58,-28,43,60,72,5,64,62,15
32,11,103,39,16,54,-40,32,46,68,1,52,57,12
43,13,87,50,14,56,-53,33,46,78,4,35,46,20
57,36,86,59,29,74,-59,48,55,104,18,40,49,36
57,36,86,59,29,74,-59,48,55,104,18,40,49,36
67,51,91,75,36,93,-55,66,66,119,35,63,63,52
67,49,93,83,27,77,-62,64,66,107,31,66,71,51
59,26,88,62,11,46,-68,41,49,81,11,48,62,35
45,9,84,34,10,35,-47,29,38,67,-1,35,48,25
34,10,90,24,20,31,-17,34,41,65,-4,31,52,24
27,-9,97,22,22,25,-17,34,41,57,-6,31,56,15
25,-6,93,21,20,29,-36,33,38,55,-3,32,41,12
25,-6,93,21,20,29,-36,33,38,55,-3,32,41,12
29,15,88,31,31,37,-38,39,39,60,5,35,28,32
36,13,88,30,35,35,-39,33,42,59,5,33,28,37
38,12,90,26,29,31,-35,25,45,52,-1,27,32,28
42,13,92,39,36,36,-8,35,47,54,6,31,44,33
41,19,93,46,46,37,8,42,42,61,10,35,57,40
37,23,98,38,43,35,-1,36,44,62,4,39,65,37
46,16,101,31,32,28,-2,33,52,54,2,34,54,34
46,16,101,31,32,28,-2,33,52,54,2,34,54,34
46,13,97,18,23,9,-6,24,45,39,-10,8,41,29
33,0,89,-4,25,-8,-20,3,40,28,-32,-10,41,26
39,4,87,-4,27,-4,-18,-4,49,36,-32,-3,42,42
58,15,80,11,33,12,-8,8,60,51,-10,3,44,60
62,15,80,27,50,32,-9,31,62,54,14,11,53,61
50,30,94,40,54,44,-4,50,53,58,38,31,63,61
50,30,94,40,54,44,-4,50,53,58,38,31,63,61
41,29,105,48,39,42,1,48,43,54,50,37,69,55
28,16,95,48,22,44,-15,38,31,40,47,31,74,32
24,15,81,49,18,48,-32,36,27,41,39,22,70,25
28,10,88,41,19,40,-29,31,32,42,32,10,62,36
27,13,87,25,13,23,-29,21,34,32,18,1,63,32
27,12,75,24,2,8,-31,22,27,28,6,5,59,27
26,17,81,28,-2,12,-24,29,17,41,8,20,59,34
26,17,81,28,-2,12,-24,29,17,41,8,20,59,34
19,25,98,23,-2,17,-20,29,18,43,13,30,78,32
15,16,98,27,2,18,-22,25,30,33,11,29,92,36
23,23,85,30,14,25,-31,26,31,40,11,24,80,46
33,32,85,35,27,39,-38,33,29,57,30,28,62,49
32,27,90,42,32,38,-21,34,40,56,53,31,61,50
33,27,78,50,35,34,-5,43,51,53,63,26,70,54
33,27,78,50,35,34,-5,43,51,53,63,26,70,54
34,17,66,56,41,41,-16,55,56,52,69,35,73,54
28,11,70,44,44,30,-32,40,51,42,62,27,69,45
22,1,74,19,36,6,-28,23,35,27,40,0,58,30
25,-2,78,18,28,0,-10,29,33,32,29,6,58,30
30,16,88,24,30,8,3,34,42,41,30,25,78,46
29,12,95,8,38,-1,4,26,38,25,32,18,87,51
29,12,95,8,38,-1,4,26,38,25,32,18,87,51
22,4,89,-3,36,-14,-8,24,35,13,25,10,81,37
24,13,85,7,34,-6,-11,26,53,26,19,15,82,42
38,27,92,12,50,1,10,30,68,37,24,21,87,63
33,28,84,0,58,-14,26,31,54,27,30,25,86,52
15,6,72,2,39,-24,13,29,34,16,27,14,90,26
16,18,71,24,33,-5,-6,24,35,32,27,-4,90,35
16,18,71,24,33,-5,-6,24,35,32,27,-4,90,35
29,40,66,32,50,7,-9,9,47,39,30,-8,72,59
33,26,63,24,55,-6,-5,-2,54,29,19,-17,66,57
29,19,72,17,42,-9,4,-3,49,27,3,-30,79,50
29,14,70,20,39,1,11,-5,50,32,4,-23,84,58
28,22,66,23,46,4,2,3,55,31,14,-5,88,58
27,40,76,27,60,9,-5,26,62,26,32,10,96,58
27,35,79,31,61,14,5,40,61,27,55,18,99,62
13,26,71,26,35,5,21,31,45,33,65,8,98,54
13,26,71,26,35,5,21,31,45,33,65,8,98,54
9,26,71,27,30,1,35,25,46,38,60,-1,95,57
31,39,72,40,46,19,25,34,59,46,66,16,93,72
32,37,71,43,46,25,1,27,55,43,62,23,98,68
5,10,67,27,41,3,8,-7,48,18,25,-1,92,51
3,7,57,17,50,-9,31,-23,57,6,2,-15,91,46
27,26,59,34,67,16,33,-4,70,25,24,-4,106,64
27,26,59,34,67,16,33,-4,70,25,24,-4,106,64
34,47,65,49,80,37,24,6,82,39,37,4,108,79
23,37,62,36,72,18,20,-4,78,28,22,-7,99,67
19,2,67,17,55,6,29,7,66,17,28,-4,105,48
26,25,83,33,73,27,50,41,73,38,58,21,128,60
40,64,93,61,100,43,51,56,82,54,72,42,138,86
47,65,89,63,79,31,27,50,82,41,73,38,130,92
39,62,80,49,56,26,26,50,77,40,74,29,127,76
39,62,80,49,56,26,26,50,77,40,74,29,127,76
30,56,74,47,67,30,43,59,75,47,76,46,128,68
27,56,72,48,76,25,37,52,76,40,64,56,126,75
32,61,70,47,68,19,26,42,73,42,55,39,119,79
31,64,63,54,60,28,33,43,69,55,71,31,112,77
24,65,56,63,57,45,28,37,70,54,78,35,112,71
24,49,56,63,56,56,7,32,71,46,68,25,108,67
30,58,56,59,60,51,-6,24,61,53,59,10,100,78
30,58,56,59,60,51,-6,24,61,53,59,10,100,78
36,77,56,57,68,42,-7,9,61,61,54,14,101,94
36,66,56,61,71,44,-1,12,68,56,52,27,118,93
33,54,59,52,65,46,14,29,60,51,54,30,126,77
28,45,70,36,59,24,33,32,50,40,52,31,124,67
23,46,76,15,39,-2,39,24,34,20,36,34,126,56
23,43,70,7,24,-10,24,19,26,9,28,28,126,53
23,43,70,7,24,-10,24,19,26,9,28,28,126,53
32,40,62,18,42,2,8,13,35,21,39,21,118,63
38,51,60,29,67,20,-1,21,43,35,57,22,116,72
35,49,57,38,72,31,4,37,49,34,65,20,122,76
32,55,52,49,78,34,19,22,58,40,55,5,116,82
33,62,56,46,89,32,36,3,66,49,45,-1,106,83
37,55,65,36,88,32,51,19,66,43,59,16,116,79
35,61,65,43,85,44,46,32,66,46,71,32,128,74
35,61,65,43,85,44,46,32,66,46,71,32,128,74
29,64,61,64,86,53,27,31,69,54,71,36,119,73
32,69,63,63,73,43,21,41,56,47,81,36,118,68
24,64,67,39,58,23,30,44,37,30,83,35,128,55
5,36,63,28,59,16,34,32,36,21,65,31,124,46
8,37,57,37,61,21,33,46,39,29,66,39,125,50
28,56,61,44,61,29,38,69,38,39,89,52,133,60
35,69,62,41,63,31,34,51,42,34,89,46,127,65
24,67,56,38,57,18,28,29,38,22,67,22,114,59
24,67,56,38,57,18,28,29,38,22,67,22,114,59
13,37,56,34,36,3,32,31,19,13,59,8,109,43
-4,28,57,20,23,-8,29,32,9,2,55,15,106,24
-5,42,57,14,38,-3,24,29,20,3,56,26,110,30
19,54,61,37,64,17,43,31,38,30,64,27,124,53
24,54,61,49,64,33,67,32,38,40,68,27,119,54
12,35,62,40,59,32,67,31,31,22,66,30,98,47
18,39,69,39,72,32,57,31,35,28,61,35,84,56
18,39,69,39,72,32,57,31,35,28,61,35,84,56
30,43,70,48,79,39,58,36,47,45,65,35,72,65
16,30,71,45,67,38,59,47,48,38,75,36,58,56
6,27,83,42,59,42,56,58,39,40,83,38,59,54
25,23,96,57,67,55,56,62,40,52,96,39,61,66
30,22,97,60,73,47,52,51,45,46,91,29,44,64
11,7,84,32,68,20,43,28,40,26,61,19,29,49
1,-8,75,13,61,7,47,29,27,21,50,27,31,45
1,-8,75,13,61,7,47,29,27,21,50,27,31,45
2,-1,81,24,54,17,58,49,15,27,62,35,34,44
4,-4,93,32,54,26,60,47,19,26,65,31,30,39
15,0,89,23,58,27,58,40,35,34,63,27,33,47
26,10,87,29,65,28,57,52,39,45,68,29,39,64
29,2,95,36,69,28,65,55,33,37,67,28,31,63
18,-3,90,26,69,23,84,47,31,30,58,26,34,51
7,-11,84,26,81,26,96,55,42,34,65,33,52,56
7,-11,84,26,81,26,96,55,42,34,65,33,52,56
19,-7,90,43,89,36,92,56,55,43,80,35,51,62
27,2,84,49,77,36,81,39,57,51,75,29,33,62
19,-12,70,34,61,31,70,33,55,49,61,29,31,63
13,-8,73,26,55,29,69,32,48,41,60,29,35,61
16,8,89,37,59,30,98,31,39,48,70,28,31,60
6,2,93,43,59,28,122,43,42,52,76,27,32,61
-4,-16,80,37,52,24,113,59,49,32,74,25,35,51
-4,-16,80,37,52,24,113,59,49,32,74,25,35,51
3,-13,82,29,52,25,114,56,45,25,68,34,32,49
6,14,86,23,47,16,116,34,34,35,57,35,34,50
2,-1,74,24,36,11,111,25,38,19,58,24,35,39
9,-21,75,33,41,25,142,44,53,12,78,41,35,45
21,-6,87,42,57,34,168,63,64,32,95,61,50,60
21,8,75,49,60,38,141,61,65,43,92,47,58,59
21,8,75,49,60,38,141,61,65,43,92,47,58,59
23,23,56,58,56,49,121,59,63,49,90,38,41,60
30,17,59,49,59,41,136,56,66,49,85,37,25,70
26,3,60,38,66,29,133,35,67,52,73,22,40,71
35,27,56,63,74,68,123,25,71,104,74,14,63,90
66,61,67,111,93,140,137,46,88,190,97,38,64,149
82,90,73,148,134,197,147,62,110,270,112,52,59,214
91,105,64,171,170,241,152,62,126,341,105,36,61,267
112,118,58,190,177,272,151,54,134,401,105,30,54,296
112,118,58,190,177,272,151,54,134,401,105,30,54,296
126,140,50,204,180,297,135,38,141,434,110,25,41,310
130,147,43,223,176,326,123,24,137,453,111,7,39,325
127,150,43,230,149,335,131,26,121,458,113,6,32,320
117,139,44,217,149,322,151,33,121,447,120,20,34,310
108,127,51,210,155,319,155,28,125,441,117,11,46,306
113,144,50,208,134,322,135,25,116,437,110,0,50,303
138,154,43,214,139,311,127,35,123,439,118,21,48,319
138,154,43,214,139,311,127,35,123,439,118,21,48,319
150,162,47,216,145,308,139,37,131,457,122,34,47,336
135,157,50,202,119,308,141,31,118,453,111,24,46,317
119,127,39,181,123,284,141,26,114,414,93,8,35,287
112,125,35,176,142,269,148,29,122,402,88,1,37,283
109,134,38,183,111,273,136,33,113,405,102,7,42,280
113,133,26,175,83,252,116,27,102,386,98,2,35,264
118,129,25,171,93,236,115,24,109,378,85,-2,39,256
114,123,36,183,107,255,128,36,121,384,104,21,56,254
114,123,36,183,107,255,128,36,121,384,104,21,56,254
107,120,38,177,116,240,144,40,120,368,122,32,63,244
95,95,36,143,108,190,158,30,103,318,103,5,51,216
71,78,34,122,92,174,160,32,89,274,85,-11,49,185
54,65,31,113,87,164,146,41,92,240,96,4,56,159
53,40,33,92,78,122,130,31,88,196,98,2,53,132
55,52,35,83,59,94,132,24,73,160,85,-7,53,118
62,66,39,85,58,91,150,31,83,145,86,7,61,117
62,66,39,85,58,91,150,31,83,145,86,7,61,117
63,58,55,73,67,80,170,36,97,138,90,23,69,106
41,49,58,58,54,53,181,44,77,116,90,15,69,79
32,37,43,54,39,32,171,56,59,84,93,13,63,64
52,35,37,44,38,28,152,63,70,66,92,29,61,62
54,30,46,33,40,19,155,64,78,57,93,28,72,55
32,17,46,28,30,3,157,60,64,34,89,7,79,36
12,1,29,9,18,-15,147,38,46,1,67,2,67,11
12,1,29,9,18,-15,147,38,46,1,67,2,67,11
5,-16,29,-7,20,-29,152,23,46,-14,52,3,52,1
11,6,38,5,24,-23,157,40,54,-2,65,-6,56,14
35,34,40,29,28,-1,149,62,60,16,85,5,70,29
47,34,48,37,41,5,145,73,59,16,107,28,80,31
38,31,54,33,46,-1,143,82,60,6,116,33,88,25
35,20,50,33,35,7,143,88,66,-2,107,31,90,16
33,22,43,26,26,-6,146,83,62,-18,100,40,97,0
37,31,51,23,37,-24,137,85,57,-27,104,58,106,-2
37,31,51,23,37,-24,137,85,57,-27,104,58,106,-2
48,31,51,35,32,-2,122,93,62,-12,101,61,102,10
46,29,38,38,22,14,120,77,60,-8,90,39,91,4
37,18,38,29,32,-7,124,58,45,-33,86,32,90,-17
21,22,42,25,25,-23,123,66,29,-47,86,42,95,-37
8,29,40,25,19,-15,134,83,29,-39,86,44,95,-38
16,29,43,29,31,-2,148,94,42,-30,100,56,98,-18
27,35,42,27,3,-6,128,100,27,-36,99,59,95,-22
12,14,38,1,-18,-31,98,83,8,-63,76,34,81,-49
12,14,38,1,-18,-31,98,83,8,-63,76,34,81,-49
-5,-7,33,-30,21,-72,89,58,24,-81,55,20,79,-50
-2,-8,34,-37,47,-94,93,55,38,-81,43,30,87,-36
3,-2,32,-25,35,-76,108,64,39,-67,40,33,75,-29
15,18,25,-15,39,-57,117,59,44,-41,48,23,58,-21
29,20,28,-6,44,-61,117,60,48,-35,63,31,70,-14
21,15,32,2,32,-62,114,83,41,-50,77,56,92,-26
21,15,32,2,32,-62,114,83,41,-50,77,56,92,-26
5,13,36,2,28,-50,106,90,23,-54,79,59,96,-42
4,-1,33,3,36,-46,97,74,15,-53,73,41,84,-39
3,-2,28,-8,43,-55,103,58,21,-58,57,22,69,-31
-3,-8,26,-25,44,-66,111,45,26,-68,41,6,68,-39
-2,-15,29,-31,41,-83,99,31,18,-78,28,1,83,-53
-4,-17,24,-48,30,-105,89,28,11,-104,10,-1,91,-56
-13,-35,20,-84,20,-124,85,27,2,-132,-8,-10,77,-59
-13,-35,20,-84,20,-124,85,27,2,-132,-8,-10,77,-59
-8,-33,23,-89,15,-131,78,21,-6,-126,-15,-11,78,-63
-2,-26,21,-64,11,-120,84,23,-10,-102,-3,-1,89,-60
-21,-29,20,-58,12,-103,100,31,-23,-99,10,-2,77,-62
-32,-28,16,-68,14,-104,91,32,-27,-107,20,-5,59,-68
-15,-29,7,-57,6,-107,66,32,-17,-102,25,-1,57,-64
-1,-8,10,-38,12,-88,65,40,-12,-86,26,11,62,-54
3,7,23,-26,43,-62,88,48,5,-72,37,18,58,-35
3,7,23,-26,43,-62,88,48,5,-72,37,18,58,-35
8,9,26,-11,62,-44,111,52,30,-60,54,18,61,-14
17,26,25,23,76,-13,120,72,36,-31,71,41,80,1
25,28,36,38,96,0,107,93,36,-14,79,70,96,2
28,29,40,6,88,-34,88,78,43,-24,57,57,95,-4
35,45,36,2,73,-40,89,56,43,-21,41,35,94,6
40,58,33,32,58,-12,97,65,34,-6,53,37,89,12
33,57,26,21,35,-26,86,65,23,-16,52,34,74,-2
33,57,26,21,35,-26,86,65,23,-16,52,34,74,-2
30,47,24,-12,28,-50,68,58,14,-31,45,36,76,-4
42,53,24,-3,33,-38,46,76,4,-21,55,61,97,3
31,35,24,0,31,-44,28,72,-3,-21,44,54,88,-13
-1,-8,24,-30,24,-71,23,33,-4,-49,15,9,59,-37
-11,-7,28,-29,26,-59,27,28,-3,-63,25,3,69,-41
5,9,37,3,41,-25,29,66,5,-52,60,37,93,-26
9,12,43,12,60,-15,27,84,13,-39,72,45,71,-17
9,12,43,12,60,-15,27,84,13,-39,72,45,71,-17
-8,-4,36,2,63,-17,33,66,16,-41,57,25,32,-24
-12,-28,31,0,48,-20,28,55,17,-48,42,10,25,-32
-1,-22,36,1,36,-23,6,58,13,-43,47,11,33,-29
-3,-20,43,-1,32,-27,1,65,2,-44,59,29,29,-31
-25,-33,44,-6,27,-32,6,75,-11,-52,53,52,23,-40
-32,-35,45,-9,22,-30,5,92,-11,-46,54,69,27,-35
-9,-33,53,-1,28,-24,15,94,0,-31,64,70,22,-24
3,-33,49,-9,26,-39,20,68,-3,-27,40,44,-7,-29
3,-33,49,-9,26,-39,20,68,-3,-27,40,44,-7,-29
2,-42,35,-24,18,-51,9,52,-6,-37,15,27,-25,-21
18,-23,47,-6,38,-37,20,61,15,-19,42,40,-6,8
31,-4,61,5,55,-24,40,66,33,3,62,44,0,16
21,-27,45,-11,42,-34,33,48,20,-15,43,26,-27,1
6,-35,32,-11,39,-42,24,29,14,-34,30,10,-37,-4
12,-27,41,0,55,-25,30,26,29,-18,37,2,-31,6
12,-27,41,0,55,-25,30,26,29,-18,37,2,-31,6
21,-21,38,10,62,-1,28,31,32,8,46,-2,-38,21
14,-19,28,23,56,6,23,34,22,7,52,10,-30,24
-2,-38,41,14,45,-2,31,37,10,-12,53,25,-8,8
-11,-42,54,-5,28,-2,23,36,-5,-16,50,26,-11,-11
4,-36,52,9,29,1,8,26,-2,-8,57,19,-18,-4
25,-24,50,31,46,6,22,23,23,4,61,26,-7,22
36,-1,57,32,44,16,30,47,24,15,61,43,0,27
36,-1,57,32,44,16,30,47,24,15,61,43,0,27
33,-3,62,36,30,15,10,63,5,12,71,50,-3,10
25,-17,54,28,23,-2,2,45,-5,2,69,38,-13,3
27,-25,57,6,34,-4,13,16,3,8,52,16,-26,15
31,-19,65,7,56,3,24,13,20,24,40,3,-27,21
34,1,58,22,68,2,34,22,33,27,44,1,-22,25
34,-6,53,27,67,11,37,23,33,18,54,1,-31,34
29,-14,58,30,64,26,32,20,25,19,62,-3,-34,31
29,-14,58,30,64,26,32,20,25,19,62,-3,-34,31
23,-16,52,38,62,29,34,22,24,25,66,-5,-29,24
24,-19,42,43,60,28,39,27,29,18,66,6,-32,25
30,-1,44,39,54,26,35,29,22,9,63,16,-30,28
29,2,44,34,42,25,33,30,10,4,68,12,-16,28
24,-9,32,31,29,20,34,27,11,8,68,12,-2,20
26,-7,27,24,22,3,34,23,8,8,53,22,3,15
45,6,51,21,23,-6,36,28,3,5,46,38,4,22
45,6,51,21,23,-6,36,28,3,5,46,38,4,22
62,23,64,33,31,7,40,34,12,16,60,49,7,32
60,11,48,33,32,9,36,32,19,21,63,44,4,32
49,-5,40,14,28,-4,31,23,18,9,48,25,1,29
36,-6,43,14,39,-4,41,25,26,7,53,23,1,25
32,-2,44,34,55,7,56,44,43,18,77,47,-1,21
40,13,47,33,63,11,60,47,42,13,76,57,1,28
43,1,47,11,61,6,66,22,35,-4,46,34,3,31
43,1,47,11,61,6,66,22,35,-4,46,34,3,31
28,-20,33,0,41,-3,72,-2,29,-1,23,4,-4,16
16,-21,25,0,24,-6,55,-3,13,-1,23,3,-8,0
22,-17,28,5,30,-3,37,12,5,-9,40,23,-5,3
31,-5,27,18,33,1,45,29,10,2,55,31,1,9
27,-12,30,27,23,11,62,34,8,13,66,27,-1,3
23,-14,36,30,26,28,70,37,-2,14,79,33,2,7
42,19,41,47,28,36,70,40,-2,25,79,56,20,27
42,19,41,47,28,36,70,40,-2,25,79,56,20,27
67,35,43,59,10,34,62,32,6,38,69,60,23,34
65,30,32,42,-1,27,52,25,7,35,59,38,4,24
53,8,23,23,14,15,64,26,8,25,44,26,-7,25
53,-3,21,32,31,13,79,27,19,28,41,33,0,34
59,19,26,43,36,28,68,26,29,35,51,22,14,35
64,25,33,40,38,31,56,19,29,28,54,8,26,36
64,25,33,40,38,31,56,19,29,28,54,8,26,36
57,23,30,41,37,23,60,22,27,27,51,20,32,36
42,18,33,44,34,32,59,37,28,30,65,39,31,32
32,-2,52,35,20,31,49,41,14,13,67,37,29,13
21,-13,50,16,-3,6,45,28,-5,-5,39,22,30,-8
31,-3,41,23,-4,1,60,29,0,11,33,29,38,8
52,29,45,37,-1,14,63,37,2,40,48,48,42,35
46,31,37,16,-22,0,34,31,-18,28,35,40,35,26
46,31,37,16,-22,0,34,31,-18,28,35,40,35,26
29,3,28,-8,-41,-33,9,25,-35,-14,11,31,34,-3
29,7,30,-9,-40,-40,12,32,-30,-21,14,48,38,-7
41,18,19,5,-25,-16,28,37,-8,-2,30,53,36,11
50,17,-1,15,-3,-4,44,29,12,5,28,33,32,23
61,16,0,26,19,-2,60,26,27,14,27,24,30,28
59,19,6,35,40,20,68,28,34,29,38,32,30,38
30,13,-3,19,35,17,50,12,18,12,27,21,28,23
30,13,-3,19,35,17,50,12,18,12,27,21,28,23
16,-12,-8,-4,8,-18,34,-5,-4,-15,12,3,23,1
29,-2,-8,-6,7,-20,48,4,-3,-4,21,13,25,9
38,23,-9,7,25,0,72,15,2,8,27,30,34,15
32,6,-6,6,18,-5,70,18,-11,-11,17,26,30,6
19,-7,0,-8,-12,-22,56,21,-29,-25,20,19,29,-5
10,-8,3,-7,-39,-29,55,13,-41,-24,31,32,48,-16
13,0,1,-1,-45,-27,62,12,-48,-23,29,36,54,-21
13,0,1,-1,-45,-27,62,12,-48,-23,29,36,54,-21
14,2,-2,-8,-23,-22,80,24,-41,-20,25,29,43,-16
9,-16,-4,-16,-2,-18,114,27,-19,-22,28,30,37,-7
18,-3,-3,0,-4,-3,128,21,-4,-19,37,36,39,-4
27,19,-2,26,0,8,108,24,0,-6,52,38,40,4
27,18,-6,29,10,9,94,26,0,0,58,37,42,9
37,21,-7,25,21,23,116,26,1,7,54,40,50,14
52,23,0,34,26,29,135,24,10,18,44,42,59,25
52,23,0,34,26,29,135,24,10,18,44,42,59,25
38,13,1,25,8,6,122,5,0,13,28,30,60,18
13,-8,-5,1,-4,-8,109,-6,-24,-4,22,26,52,0
13,3,-3,11,15,10,120,14,-18,1,42,50,58,-4
32,32,5,29,18,21,141,33,-6,15,51,62,69,3
36,21,7,28,7,15,155,31,-13,13,45,55,63,8
27,14,14,22,13,2,153,27,-23,12,42,59,62,7
32,25,28,18,11,-8,146,22,-20,13,37,60,75,4
38,31,38,21,7,10,154,22,-10,12,45,54,91,10
33,39,30,31,16,28,165,26,-7,22,60,51,96,19
33,39,30,31,16,28,165,26,-7,22,60,51,96,19
28,24,13,30,9,17,154,11,-14,18,48,35,74,12
28,16,-2,13,7,6,139,-8,-14,7,20,18,54,12
29,20,-6,5,31,12,139,16,-1,11,26,30,56,23
26,16,-4,6,33,6,142,34,2,12,38,37,54,20
28,22,-8,13,18,4,147,8,-1,7,20,27,54,18
31,22,-4,23,33,23,156,2,8,19,17,26,62,29
31,22,-4,23,33,23,156,2,8,19,17,26,62,29
30,24,7,25,44,31,154,24,16,40,39,34,66,27
41,38,13,28,36,32,148,33,18,36,57,53,79,27
60,43,9,36,32,37,150,34,19,23,49,58,88,33
55,42,1,30,31,23,148,28,28,24,33,34,70,31
50,30,0,9,33,6,150,11,37,21,29,22,52,34
64,33,3,9,32,11,149,13,34,19,30,29,66,34
52,45,2,25,29,15,130,33,29,17,33,31,88,28
52,45,2,25,29,15,130,33,29,17,33,31,88,28
32,36,1,17,31,7,123,41,29,11,40,35,82,27
37,30,-4,-6,32,1,141,26,28,-2,27,29,66,26
41,17,-14,-8,31,-5,142,2,29,-11,8,7,61,25
38,14,-16,-4,29,-5,123,6,30,-5,13,10,61,29
46,32,-9,-5,32,12,115,25,30,8,27,27,66,32
55,45,4,17,45,29,122,34,36,16,41,30,76,40
57,58,19,45,62,39,133,47,47,33,59,45,73,53
57,58,19,45,62,39,133,47,47,33,59,45,73,53
62,48,32,49,68,55,140,62,54,48,65,60,63,63
59,31,37,37,51,56,129,56,46,47,58,51,56,55
38,23,26,27,29,40,101,53,21,34,57,46,29,34
33,7,16,29,26,33,88,65,14,25,64,62,-2,25
39,11,20,33,31,36,105,70,27,26,66,67,-4,29
36,6,31,27,26,33,126,58,26,27,55,50,2,28
27,-16,33,21,22,27,116,41,17,23,47,39,-6,23
27,-16,33,21,22,27,116,41,17,23,47,39,-6,23
25,-15,32,19,29,22,92,31,23,24,45,36,-19,20
29,-14,37,10,33,16,94,33,36,20,39,33,-27,20
26,-20,39,-3,44,4,114,28,40,9,29,25,-31,22
31,-28,37,-10,59,-2,115,26,49,4,29,21,-30,29
51,-24,34,7,66,11,99,35,63,7,45,34,-22,38
51,-13,32,20,57,24,89,37,60,16,56,45,-22,40
38,-17,36,16,50,26,90,34,41,21,63,42,-27,33
38,-17,36,16,50,26,90,34,41,21,63,42,-27,33
36,-7,37,19,47,28,91,33,29,20,63,36,-23,28
35,-9,32,23,39,32,88,29,27,18,46,36,-23,28
39,-31,27,17,42,29,82,25,33,25,37,36,-32,35
51,-19,26,18,52,23,75,19,38,34,40,30,-29,41
47,-9,30,31,63,30,86,23,44,32,44,30,-22,42
29,-25,29,13,60,26,97,24,41,21,40,30,-27,31
20,-46,20,-18,38,5,72,10,27,1,34,18,-38,10
20,-46,20,-18,38,5,72,10,27,1,34,18,-38,10
20,-46,17,-11,34,0,52,12,22,-11,44,18,-41,7
24,-27,26,3,51,18,69,27,28,0,50,26,-34,23
32,-34,31,3,62,27,79,21,35,10,43,25,-31,30
30,-33,25,9,56,26,54,13,32,12,43,25,-33,25
30,-13,25,30,51,37,43,36,27,22,60,37,-24,30
32,-24,34,35,48,41,62,40,26,23,66,39,-19,30
32,-24,34,35,48,41,62,40,26,23,66,39,-19,30
31,-34,35,19,50,32,72,11,27,18,50,26,-24,24
37,-33,23,7,57,30,55,7,37,23,41,27,-19,31
36,-27,20,16,54,32,41,24,37,24,45,31,-5,33
31,-20,26,24,54,30,51,30,28,18,55,29,0,30
33,-31,18,13,57,30,72,26,33,9,62,33,-6,29
30,-29,-1,3,56,23,76,24,43,8,56,35,-7,25
31,-22,-3,2,58,11,66,13,43,6,45,25,-5,36
31,-22,-3,2,58,11,66,13,43,6,45,25,-5,36
45,-16,17,5,61,17,66,0,50,8,42,22,-5,46
47,-9,27,10,58,34,80,0,56,17,50,28,1,38
34,-21,23,10,46,32,77,11,44,14,56,30,2,29
32,-17,22,10,33,24,51,24,33,4,55,41,5,29
47,-6,28,20,29,30,44,26,41,6,57,54,16,35
59,-4,32,32,31,35,64,24,57,20,60,50,17,44
59,-4,32,32,31,35,64,24,57,20,60,50,17,44
54,-3,19,21,29,28,61,16,51,17,52,36,-1,41
36,-12,2,8,19,21,48,-4,30,4,34,27,-10,30
24,-19,-4,5,2,18,42,-11,20,1,21,23,-3,14
27,-26,-2,4,-9,19,36,-4,28,-7,25,20,-1,4
34,-16,5,7,7,32,43,-1,37,-1,31,26,-1,14
31,2,18,18,25,36,66,11,36,22,38,29,13,32
29,-12,29,28,25,33,70,24,43,20,52,32,23,30
29,-12,29,28,25,33,70,24,43,20,52,32,23,30
40,-9,25,28,24,42,55,30,52,13,60,42,23,25
43,9,23,30,23,44,51,25,47,23,52,45,24,33
34,3,27,29,18,32,62,13,32,28,39,38,24,35
34,4,26,24,11,30,73,15,34,22,37,36,19,30
45,3,27,26,11,31,74,29,50,15,45,44,21,31
56,7,36,29,19,32,61,33,54,17,51,58,34,42
64,19,43,32,30,47,58,32,52,31,57,66,36,57
64,19,43,32,30,47,58,32,52,31,57,66,36,57
65,25,39,39,36,63,62,33,62,47,60,60,31,65
55,28,27,41,16,50,56,20,55,41,52,47,29,52
54,16,29,36,0,40,65,13,39,21,52,51,30,33
65,23,47,42,14,48,83,27,48,25,61,63,46,41
62,31,56,44,34,53,74,35,64,41,55,64,59,59
50,14,60,39,40,55,70,30,59,39,49,61,51,62
50,14,60,39,40,55,70,30,59,39,49,61,51,62
48,19,59,43,44,56,89,28,55,37,56,56,39,58
54,29,48,45,59,58,93,32,63,43,60,51,36,63
54,29,40,49,56,60,72,32,60,42,54,48,34,62
51,30,38,53,30,55,56,20,44,36,47,41,36,54
55,22,35,41,24,41,58,5,37,31,37,30,35,59
55,19,30,23,45,29,70,-4,42,24,26,23,24,57
55,19,30,23,45,29,70,-4,42,24,26,23,24,57
38,12,33,30,46,30,70,-1,38,24,25,26,29,36
29,14,42,39,22,34,52,16,24,30,36,44,53,34
44,30,53,32,23,34,51,27,28,34,47,54,64,53
51,23,66,33,36,34,71,36,36,29,55,47,62,53
37,15,56,29,32,26,73,31,24,16,49,31,54,32
29,10,34,9,24,9,54,0,21,-1,24,14,39,24
30,10,26,-1,21,-2,44,-20,34,-3,0,0,30,28
30,10,26,-1,21,-2,44,-20,34,-3,0,0,30,28
24,10,24,-1,22,-3,37,-8,23,1,-5,-3,33,19
17,-14,20,2,26,4,33,6,8,-11,8,12,43,12
22,-10,25,9,33,18,43,2,25,-18,21,27,54,21
31,6,36,14,34,20,48,0,35,-10,24,22,55,30
32,4,33,20,27,17,42,6,22,-3,23,15,52,26
29,13,27,30,23,31,40,13,13,-2,27,21,63,23
30,17,30,35,29,34,42,12,16,-2,28,24,67,32
30,17,30,35,29,34,42,12,16,-2,28,24,67,32
25,15,27,22,23,9,29,1,14,-1,13,8,58,33
23,7,23,5,12,0,22,-3,9,-1,1,-1,59,22
27,4,20,9,22,7,33,-2,5,-4,-1,15,54,15
26,14,8,17,23,1,35,-2,0,-3,0,24,41,19
31,13,-1,12,16,3,30,1,7,-3,7,11,35,30
28,17,-3,-1,14,1,28,-5,11,-13,4,-5,29,26
7,11,-2,-14,1,-26,27,-23,-1,-27,-19,-3,39,9
7,11,-2,-14,1,-26,27,-23,-1,-27,-19,-3,39,9
-6,-7,1,-13,-12,-34,29,-19,-10,-36,-23,8,56,-2
-7,-5,0,-7,-9,-19,23,-1,-17,-42,-7,1,45,-10
-6,2,-2,0,-1,-5,13,2,-12,-39,0,0,38,-7
13,19,-3,16,8,10,13,3,8,-13,5,20,59,13
26,30,-10,27,21,16,17,8,24,8,9,23,59,32
12,15,-13,20,27,6,25,1,24,-6,4,-1,41,37
5,23,-9,10,20,0,23,-6,15,-12,-1,-7,48,26
5,23,-9,10,20,0,23,-6,15,-12,-1,-7,48,26
9,30,-21,11,7,2,-6,-2,8,-10,-2,8,49,12
0,17,-34,1,-4,-2,-26,-3,-2,-21,-10,4,32,11
-7,16,-32,-8,9,-8,-9,-9,-3,-22,-15,-13,33,24
8,22,-25,11,40,5,8,-2,16,0,3,-2,47,38
13,33,-26,30,48,20,-2,11,25,14,26,17,49,40
5,35,-24,26,37,17,-2,11,16,1,29,13,48,34
5,35,-24,26,37,17,-2,11,16,1,29,13,48,34
12,31,-16,15,29,1,9,0,13,-20,13,-1,54,26
20,26,-13,18,37,-1,20,-15,12,-23,-5,-5,59,20
11,19,-11,32,43,18,29,-8,9,-13,0,6,61,24
-2,26,-14,33,35,23,20,14,12,-14,21,20,67,21
-6,8,-24,13,26,4,0,10,6,-37,22,14,65,3
4,-3,-27,-5,24,-15,-2,-12,-3,-43,-3,-4,57,-1
22,28,-18,7,30,-5,12,-10,8,-19,-15,-4,59,22
22,28,-18,7,30,-5,12,-10,8,-19,-15,-4,59,22
23,38,-13,31,35,20,12,6,16,-6,6,6,53,37
4,30,-14,34,29,18,-4,1,2,-18,18,3,35,26
-1,15,-5,12,28,4,-9,-9,-4,-31,12,3,29,11
0,-2,-1,-14,30,-10,-2,-3,1,-30,6,6,24,9
-2,7,-12,-25,27,-27,4,-8,5,-24,-16,-13,8,19
6,7,-11,-14,26,-23,0,-29,8,-13,-30,-28,-11,31
5,-7,-2,-2,29,-2,-12,-16,0,0,-15,-12,-24,29
5,-7,-2,-2,29,-2,-12,-16,0,0,-15,-12,-24,29
-9,-15,4,-2,27,4,-10,18,-2,-1,4,8,-30,24
-7,-12,12,2,34,8,4,16,17,-7,12,4,-34,28
-3,-6,25,13,44,20,10,-3,20,-2,10,-8,-36,29
-7,-18,31,18,38,21,2,3,5,0,7,-19,-37,27
-14,-29,24,6,25,10,-5,1,-5,-5,0,-23,-44,22
-13,-42,27,-7,27,7,9,-14,2,-9,-1,-12,-45,20
1,-36,37,9,38,24,31,5,22,1,20,3,-31,38
1,-36,37,9,38,24,31,5,22,1,20,3,-31,38
10,1,33,26,37,36,19,26,23,20,32,7,-21,51
7,-1,30,13,29,10,1,8,7,15,8,-6,-31,41
13,-17,44,-7,28,-9,16,-11,10,1,-17,-22,-37,39
25,-8,52,-4,33,0,32,-1,26,9,-7,-11,-23,49
18,-13,50,10,36,4,30,19,24,12,13,21,-9,45
4,-17,49,18,30,11,15,29,16,-7,22,37,-15,29
4,-17,49,18,30,11,15,29,16,-7,22,37,-15,29
6,-15,41,35,31,36,9,28,24,-15,35,26,-34,35
12,-8,35,49,46,49,16,24,30,-1,45,8,-35,48
11,-2,41,44,51,47,12,25,26,4,41,3,-24,49
6,-11,50,35,40,43,3,16,26,-8,34,3,-21,42
-2,-17,48,18,32,26,-2,0,20,-18,25,-7,-28,33
-6,-27,52,-3,28,1,3,-3,8,-28,10,-10,-35,28
-6,-27,52,-3,28,1,3,-3,8,-28,10,-10,-35,28
-2,-25,62,-8,26,9,13,3,10,-26,14,1,-23,34
8,-12,61,5,30,28,12,3,18,-6,23,5,-7,47
13,-20,55,5,30,12,-6,-3,9,-6,12,3,-15,44
5,-17,57,-5,22,-7,-14,-6,6,-28,10,0,-26,32
-3,-12,54,-6,26,-5,1,-4,25,-34,19,-13,-29,33
-4,-25,47,-13,33,-15,9,-2,31,-19,6,-18,-29,36
-10,-33,51,-34,30,-34,-5,-4,16,-26,-10,-9,-15,24
-10,-33,51,-34,30,-34,-5,-4,16,-26,-10,-9,-15,24
-5,-26,49,-39,26,-35,-15,-2,14,-43,-2,-3,0,21
20,12,43,-6,27,-13,-12,0,24,-19,12,-4,-5,38
32,27,56,29,32,20,-15,3,33,7,26,2,-3,51
21,4,65,35,36,40,-23,17,36,-4,34,22,17,48
2,-7,58,28,33,34,-25,26,31,-16,33,27,32,37
0,-8,61,30,29,36,-30,18,35,-7,37,15,26,38
0,-8,61,30,29,36,-30,18,35,-7,37,15,26,38
14,17,58,40,30,50,-36,2,47,5,34,-2,8,50
31,44,37,52,33,58,-32,-4,48,14,25,-17,-5,62
37,38,28,61,37,61,-29,-3,36,18,20,-30,-4,61
20,8,29,35,19,42,-36,-19,24,-8,7,-38,-3,36
-4,-29,33,-6,1,10,-25,-28,17,-40,-8,-37,-10,14
-14,-27,47,-6,15,7,2,1,21,-39,-8,-20,-6,16
-14,-27,47,-6,15,7,2,1,21,-39,-8,-20,-6,16
-5,-4,62,26,34,28,4,43,33,-22,17,16,17,28
2,-6,62,36,29,36,-17,61,36,-24,35,38,26,29
-6,-9,58,24,19,33,-14,54,26,-24,27,34,19,16
-2,-9,62,31,23,44,3,41,28,-15,26,27,20,16
21,21,65,60,32,62,5,40,50,6,41,36,32,43
41,51,69,68,29,67,2,36,58,24,35,24,35,66
37,27,65,39,19,45,-5,4,44,1,5,-20,14,56
30,6,57,16,19,26,-11,-12,35,-21,-7,-28,9,42
30,6,57,16,19,26,-11,-12,35,-21,-7,-28,9,42
29,2,61,27,27,38,-4,6,43,-16,3,-1,22,42
14,-2,62,31,12,41,-4,4,45,-19,3,-13,12,34
-3,4,52,13,-3,23,-11,-10,35,-31,-9,-37,0,26
12,14,55,18,13,26,-4,4,43,-25,-3,-16,19,37
26,19,57,23,31,28,6,14,57,-21,-3,-6,28,44
9,-3,44,5,19,9,-4,1,54,-36,-24,-31,17,38
-5,-15,43,-7,-2,6,-20,-2,35,-41,-23,-39,22,27
-8,-7,47,-6,-7,16,-17,1,19,-42,-14,-32,27,9
-8,-7,47,-6,-7,16,-17,1,19,-42,-14,-32,27,9
-7,-3,52,0,1,16,5,3,33,-43,-21,-30,26,14
14,16,55,9,17,22,10,3,56,-25,-24,-37,27,39
30,12,45,11,31,35,-17,-13,59,-13,-26,-50,25,46
17,5,36,10,28,32,-26,-29,47,-22,-36,-61,17,31
10,26,45,22,20,30,-10,-17,46,-22,-30,-50,5,29
23,28,57,35,22,47,3,2,52,-12,-6,-32,8,35
31,25,55,41,22,57,7,2,53,-8,0,-32,29,32
31,25,55,41,22,57,7,2,53,-8,0,-32,29,32
32,35,55,43,26,57,12,3,62,-3,0,-33,37,48
31,36,62,37,38,59,13,11,68,1,5,-24,33,58
27,40,52,43,35,59,1,11,62,3,5,-25,41,43
31,38,37,57,31,56,-3,3,58,6,1,-34,36,41
37,48,34,58,47,68,12,4,65,21,3,-23,28,58
40,62,39,74,72,96,25,24,85,39,24,3,49,71
48,60,50,95,72,103,24,36,93,37,39,11,65,77
48,60,50,95,72,103,24,36,93,37,39,11,65,77
60,59,53,83,63,92,14,30,87,24,25,-6,59,75
66,48,45,67,64,86,12,27,92,19,10,-19,58,64
58,47,40,60,57,84,8,33,86,13,14,-11,62,53
49,55,45,60,51,84,2,41,66,15,28,0,59,53
58,68,46,83,62,94,3,49,70,33,45,7,64,61
64,83,34,79,60,86,-5,30,78,36,33,-3,60,65
64,83,34,79,60,86,-5,30,78,36,33,-3,60,65
63,65,23,37,42,51,-21,-3,73,8,0,-26,35,63
63,56,22,22,39,31,-25,-8,67,4,-6,-38,29,59
44,59,32,20,48,24,-14,3,65,14,-10,-31,51,55
32,44,35,12,65,22,2,4,79,6,-27,-18,55,55
48,52,26,17,74,35,16,1,94,12,-32,-19,45,66
48,58,32,15,52,32,11,-6,77,14,-38,-28,51,64
34,54,44,0,25,7,-8,0,51,-2,-48,-25,61,49
47,66,49,16,30,17,-1,24,56,1,-27,-4,64,50
47,66,49,16,30,17,-1,24,56,1,-27,-4,64,50
63,75,50,51,47,61,13,37,67,27,11,3,60,62
53,73,46,64,48,76,2,33,61,39,14,-18,58,60
52,56,33,63,44,71,-2,23,60,31,0,-31,53,58
55,51,16,46,39,63,-3,6,64,21,-17,-29,37,61
34,53,2,25,30,39,-18,-7,61,9,-37,-33,33,46
31,46,6,25,34,34,-16,-2,61,14,-39,-34,52,37
31,46,6,25,34,34,-16,-2,61,14,-39,-34,52,37
48,66,24,31,49,55,-1,3,72,33,-31,-28,66,55
45,76,36,31,59,61,-1,-1,76,34,-31,-29,59,69
43,67,34,34,58,52,-4,9,69,26,-27,-24,58,64
52,71,34,40,49,51,-12,27,60,28,-10,-1,74,57
54,70,37,41,39,63,-25,41,57,29,9,11,86,56
51,78,33,48,40,75,-20,48,55,31,16,5,88,56
52,78,28,62,43,79,-12,41,59,37,14,4,78,60
52,78,28,62,43,79,-12,41,59,37,14,4,78,60
49,67,14,64,28,73,-13,32,58,33,7,5,67,56
45,72,-4,57,15,67,-15,33,51,26,2,0,59,46
54,69,0,58,25,62,-15,31,59,23,3,-4,51,55
49,65,16,55,37,59,-16,19,68,27,2,-8,51,61
31,53,11,39,30,58,-24,23,59,19,-12,-6,55,41
28,39,5,28,18,52,-24,32,50,8,-23,1,58,30
35,47,17,25,22,47,-8,26,56,18,-24,-3,53,49
35,47,17,25,22,47,-8,26,56,18,-24,-3,53,49
39,49,36,30,31,55,0,23,65,31,-21,-12,37,63
37,50,44,33,24,54,-15,29,62,33,-23,-10,31,54
36,41,39,22,24,39,-16,33,51,28,-25,-7,35,43
27,12,47,18,33,33,0,35,41,16,-26,-7,24,36
18,5,51,19,20,32,-1,32,30,8,-24,-2,2,29
22,10,40,16,0,30,-12,33,29,7,-20,8,-3,31
22,10,40,16,0,30,-12,33,29,7,-20,8,-3,31
29,16,39,9,-6,28,-27,37,29,13,-26,11,-10,30
24,6,40,0,-4,15,-28,17,16,12,-45,-15,-30,28
21,-16,30,-4,-2,5,-9,-11,13,3,-58,-38,-43,30
26,-4,38,7,-3,31,-3,5,26,14,-45,-19,-34,30
33,12,64,35,1,67,-4,36,34,37,-10,9,-12,36
44,19,61,54,11,63,4,34,30,45,9,8,-4,54
58,26,50,51,20,54,12,28,34,43,0,6,-13,60
58,26,50,51,20,54,12,28,34,43,0,6,-13,60
49,16,54,39,25,61,7,27,39,42,-15,8,-25,48
31,6,51,24,22,45,-2,3,33,34,-32,-9,-27,43
43,9,50,20,16,26,9,-11,30,22,-32,-18,-18,55
58,28,53,35,16,42,20,8,31,34,-18,-4,-13,60
54,36,52,58,29,73,8,32,32,54,-1,14,-10,57
54,22,53,68,33,91,1,46,35,59,20,29,-2,65
54,22,53,68,33,91,1,46,35,59,20,29,-2,65
48,22,52,61,24,88,15,44,29,56,24,25,1,58
36,16,53,47,23,71,27,29,24,47,2,7,-3,44
33,4,60,38,26,66,26,25,33,34,-6,-1,-2,43
31,-2,51,30,17,56,19,34,31,25,0,3,-1,40
26,-23,43,14,17,31,16,33,18,11,-9,-2,-9,27
22,-19,51,5,21,20,18,18,18,6,-23,-3,-6,20
33,3,53,21,14,32,23,6,23,27,-22,-6,-5,28
33,3,53,21,14,32,23,6,23,27,-22,-6,-5,28
50,14,41,36,14,49,27,2,25,49,-25,-17,-22,37
41,13,34,29,23,49,26,-2,23,39,-35,-24,-38,29
24,-4,41,23,24,43,23,9,21,23,-22,-13,-28,19
41,13,48,38,22,55,23,45,26,40,8,20,-2,39
67,45,50,54,33,71,30,58,33,68,14,37,8,59
65,41,56,40,33,56,33,31,33,63,0,17,1,44
48,25,57,20,15,35,20,13,22,36,-11,-2,3,20
48,25,57,20,15,35,20,13,22,36,-11,-2,3,20
36,10,45,28,5,30,7,29,13,27,-15,9,13,11
30,11,39,26,-1,25,7,33,9,30,-26,14,9,11
33,12,47,3,1,16,12,12,20,22,-31,1,0,18
44,6,48,2,17,22,16,8,30,21,-19,1,11,26
56,22,49,24,28,51,24,27,29,36,7,16,30,28
59,34,58,48,29,73,29,40,32,44,30,29,32,31
58,39,52,54,27,69,31,25,34,47,25,19,20,32
58,39,52,54,27,69,31,25,34,47,25,19,20,32
58,38,41,38,23,62,25,3,25,44,-5,0,10,29
47,20,34,24,16,59,9,0,19,28,-23,-5,3,24
30,16,27,26,14,57,-6,17,14,21,-8,-2,2,15
26,10,35,32,10,58,2,29,9,25,5,5,12,5
28,11,43,34,7,57,16,26,12,30,0,11,17,1
29,18,37,28,6,52,9,26,5,29,1,3,8,3
31,13,38,20,-1,52,-2,30,-2,25,3,2,4,0
31,13,38,20,-1,52,-2,30,-2,25,3,2,4,0
32,23,51,38,-3,56,14,27,2,34,2,23,20,-1
28,21,57,51,4,62,35,24,6,37,7,24,29,5
26,12,48,40,14,68,31,33,16,33,7,3,18,6
31,17,37,33,17,59,25,29,22,33,0,-1,9,3
32,5,28,20,4,41,29,7,7,21,-3,-2,-1,2
32,5,28,20,4,41,29,7,7,21,-3,-2,-1,2
24,-2,24,4,1,41,27,9,-1,9,-6,-7,-3,2
28,7,34,21,27,62,30,38,23,25,4,5,15,19
37,20,57,45,41,67,36,34,28,44,15,15,32,37
33,19,61,18,32,42,30,6,7,36,-12,3,33,26
32,1,46,-3,29,28,29,0,1,12,-30,-6,30,4
32,1,46,-3,29,28,29,0,1,12,-30,-6,30,4
33,2,37,9,30,29,27,1,-5,4,-14,-3,28,-2
28,7,39,10,24,25,10,6,-17,8,-14,4,24,2
27,10,31,5,23,26,4,26,-22,12,-27,10,16,3
30,18,10,1,15,21,7,15,-28,6,-31,4,6,-3
25,4,7,-7,0,-1,-3,-5,-33,-5,-32,-6,-1,-14
25,4,7,-7,0,-1,-3,-5,-33,-5,-32,-6,-1,-14
26,17,24,4,4,3,-9,11,-26,0,-28,-3,6,-12
29,35,37,26,20,34,1,24,-18,15,-16,-2,16,5
12,10,31,24,12,36,9,2,-27,10,-16,-14,8,0
-6,-6,24,14,-8,23,0,-8,-36,-2,-29,-23,2,-29
1,8,28,26,-1,43,-18,7,-32,5,-24,-12,16,-23
7,26,26,32,11,58,-26,9,-32,19,-12,-1,30,4
7,26,26,32,11,58,-26,9,-32,19,-12,-1,30,4
1,19,27,16,9,40,-12,0,-36,19,-20,-4,27,-3
0,7,32,9,4,35,1,1,-34,13,-31,-2,28,-21
-3,21,28,7,-5,40,-13,4,-37,15,-30,-1,34,-13
0,28,29,11,0,34,-19,1,-34,19,-24,-4,32,2
15,34,42,22,22,35,0,-4,-13,21,-21,1,32,5
10,24,44,15,20,28,3,-14,-12,8,-34,-8,31,-1
10,24,44,15,20,28,3,-14,-12,8,-34,-8,31,-1
-4,1,33,-7,-2,8,-18,-23,-28,-8,-51,-23,21,-9
7,23,31,7,8,26,-26,-11,-19,10,-31,-14,27,0
37,60,38,56,39,70,-18,17,7,48,8,10,51,33
51,81,36,74,42,79,-26,32,10,73,15,25,64,55
42,79,25,57,20,55,-43,24,-1,64,4,20,59,39
21,55,34,44,2,50,-40,21,5,41,5,19,48,13
-1,43,49,39,-4,52,-23,28,8,27,3,22,42,0
-1,43,49,39,-4,52,-23,28,8,27,3,22,42,0
-5,36,36,35,0,41,-19,18,8,22,-5,14,47,-5
0,40,30,32,12,39,-27,4,22,29,-6,1,58,-1
-7,42,47,31,13,42,-33,3,19,34,-11,1,62,3
-13,30,44,29,10,36,-33,5,13,27,-17,7,59,1
-3,38,25,29,22,36,-24,9,34,28,-13,14,66,4
6,46,25,34,37,36,-20,18,55,31,-1,26,67,12
6,46,25,34,37,36,-20,18,55,31,-1,26,67,12
-7,40,29,28,36,25,-26,19,45,18,-1,28,52,8
-23,37,27,13,27,20,-24,11,36,13,-13,20,54,0
-30,20,28,6,16,17,-18,-1,36,18,-25,13,60,-2
-36,11,23,-8,9,1,-21,-20,23,0,-41,-5,44,-11
-16,22,31,-1,25,15,-18,-19,40,-2,-39,-8,41,-2
14,44,39,43,42,58,-17,-1,69,32,-14,17,61,28
14,44,39,43,42,58,-17,-1,69,32,-14,17,61,28
5,59,32,48,21,62,-31,0,53,46,-1,26,73,28
-12,50,42,27,-15,35,-37,5,24,30,-1,23,83,10
-5,57,60,40,-40,36,-36,25,15,33,-2,39,95,7
4,70,54,53,-36,58,-26,39,19,47,4,51,96,10
3,59,53,37,-5,59,1,29,38,45,7,33,92,17
-6,44,55,19,11,35,8,9,57,34,-8,4,83,19
-13,29,39,21,6,27,-2,-5,60,24,-21,-5,69,11
-13,29,39,21,6,27,-2,-5,60,24,-21,-5,69,11
2,45,40,43,17,52,9,-4,71,36,-7,9,77,20
18,63,56,60,41,71,25,3,83,49,10,26,92,33
0,44,50,54,28,59,10,1,69,37,11,30,79,17
-14,37,42,42,-3,50,-4,10,55,25,14,26,70,2
-2,44,56,40,-6,62,2,30,60,32,24,27,84,20
5,56,66,44,4,65,5,33,64,42,31,29,96,30
5,56,66,44,4,65,5,33,64,42,31,29,96,30
-1,57,62,44,-10,54,8,9,54,32,21,26,103,20
-3,49,67,34,-30,42,25,0,45,24,-1,23,109,18
1,60,70,24,-20,38,43,14,52,34,-11,31,111,31
2,56,53,18,-11,30,32,9,60,36,-19,28,92,36
0,47,38,5,-33,5,5,-10,49,27,-34,7,73,25
2,53,47,-2,-43,-3,8,-8,33,28,-26,-4,82,22
2,53,47,-2,-43,-3,8,-8,33,28,-26,-4,82,22
5,55,60,13,-27,17,29,5,32,29,-3,6,99,29
-1,68,57,30,-30,28,31,3,42,32,0,18,95,28
-4,68,55,38,-32,31,29,0,57,43,1,27,90,29
13,61,68,32,-12,34,28,-1,62,45,6,29,89,42
21,61,67,29,-3,33,7,-6,59,49,-3,8,77,46
8,50,62,34,-6,46,1,-7,64,52,-10,-1,54,37
-5,46,70,30,-14,58,11,-7,55,45,-8,9,40,31
-5,46,70,30,-14,58,11,-7,55,45,-8,9,40,31
-11,39,76,33,-27,56,4,-5,40,40,-3,11,34,27
-13,20,75,42,-32,56,9,-2,45,40,4,3,19,21
-16,1,84,32,-30,48,24,-8,45,31,0,-2,-1,16
-14,-6,98,26,-30,33,12,-13,33,29,-4,5,-5,26
-9,11,94,40,-23,44,-3,-2,36,55,9,20,6,40
-2,13,91,44,-6,61,18,13,58,65,17,36,9,49
-2,13,91,44,-6,61,18,13,58,65,17,36,9,49
3,2,92,31,-1,44,35,9,66,47,3,32,-8,46
-1,-1,85,21,-3,26,25,-10,61,34,-7,7,-25,38
4,-7,85,22,-2,29,19,-21,63,36,-8,2,-29,42
18,8,90,34,-2,41,27,-10,63,52,3,19,-12,55
33,24,92,52,2,57,40,14,65,62,24,37,4,64
30,21,92,62,5,68,41,30,68,61,40,49,5,62
30,21,92,62,5,68,41,30,68,61,40,49,5,62
18,24,93,62,0,70,30,34,64,63,44,61,9,55
22,20,92,67,-1,72,27,35,59,70,45,66,17,60
23,20,91,62,-5,67,30,36,59,75,36,57,13,60
2,2,87,29,-31,37,30,15,48,57,16,31,-2,40
-9,-27,73,6,-55,5,25,-22,28,29,-6,-2,-10,23
-5,-10,57,16,-48,8,11,-30,23,33,-19,-3,-5,36
-5,-10,57,16,-48,8,11,-30,23,33,-19,-3,-5,36
7,12,62,41,-29,45,11,-3,33,59,5,26,-1,59
16,14,74,55,-25,60,20,25,40,70,36,40,-2,63
6,2,59,37,-32,34,11,17,33,56,21,28,-8,44
-6,-16,53,17,-22,19,3,5,28,37,3,20,-6,29
4,-7,73,24,-9,29,20,19,30,35,21,39,9,31
13,-1,78,35,-14,32,32,25,34,42,33,48,9,32
13,-1,78,35,-14,32,32,25,34,42,33,48,9,32
11,-2,62,38,-18,35,27,5,41,42,19,29,-2,23
18,6,57,56,-5,56,29,0,47,48,22,22,-5,27
26,11,66,71,6,69,35,12,55,58,39,35,-3,41
25,13,59,58,2,62,28,6,54,58,31,33,-6,34
30,6,43,58,1,60,18,2,47,53,12,30,-3,26
28,8,43,58,-5,58,15,7,34,46,11,34,2,31
7,4,52,36,-21,42,20,3,21,33,9,23,6,22
7,4,52,36,-21,42,20,3,21,33,9,23,6,22
-3,-18,54,22,-24,23,26,1,22,22,2,18,11,8
14,-1,48,36,-9,31,23,5,39,32,10,32,21,20
39,24,43,55,6,53,20,5,57,52,17,28,27,42
32,19,35,58,6,49,24,-2,61,54,3,11,16,40
7,8,32,46,-1,29,24,-3,52,35,-8,17,10,24
-2,-7,35,36,4,28,23,-5,41,24,-1,25,18,20
-2,-7,35,36,4,28,23,-5,41,24,-1,25,18,20
9,8,30,46,13,46,28,-2,41,39,8,28,25,24
24,29,30,65,14,63,36,9,58,61,11,37,24,36
32,26,42,66,6,62,36,16,59,72,6,36,27,42
22,18,47,46,-1,41,25,9,37,65,-3,30,36,27
5,10,40,34,-6,29,15,1,25,49,-3,36,36,14
0,19,28,39,-9,35,13,12,30,52,5,35,30,19
0,19,28,39,-9,35,13,12,30,52,5,35,30,19
8,17,22,41,-3,37,23,27,31,60,19,29,27,30
19,1,15,40,6,34,28,31,34,64,33,36,32,33
20,10,6,41,4,34,29,23,39,67,30,38,38,32
21,16,-4,36,3,20,30,6,39,54,12,25,35,35
23,12,-17,14,6,-4,18,-5,31,39,-4,22,29,35
15,2,-28,-2,1,-11,5,-6,29,38,-11,30,31,29
3,-9,-22,8,-3,-3,10,-1,43,35,-21,31,35,23
3,-9,-22,8,-3,-3,10,-1,43,35,-21,31,35,23
5,4,-18,21,-1,6,25,-3,48,35,-26,22,36,21
24,18,-23,32,7,22,32,-1,42,44,-10,23,40,28
31,28,-13,53,16,51,30,16,52,48,16,48,55,34
10,18,-3,65,15,55,29,32,55,45,29,55,62,21
-2,-2,-16,59,7,46,34,34,38,38,37,39,53,9
13,11,-34,56,7,45,24,31,27,35,37,38,56,13
13,11,-34,56,7,45,24,31,27,35,37,38,56,13
21,9,-38,49,8,42,4,23,34,30,20,45,59,18
3,-4,-29,28,2,29,9,6,33,20,0,35,43,12
-9,-5,-36,18,-4,13,32,1,27,11,-6,26,37,2
3,-1,-55,23,3,12,31,17,33,14,0,31,47,8
22,22,-56,31,11,27,19,22,37,35,-8,34,49,26
35,30,-41,37,15,35,25,11,39,47,-19,25,50,38
35,30,-41,37,15,35,25,11,39,47,-19,25,50,38
32,17,-43,34,17,25,40,0,35,34,-24,4,54,26
14,6,-60,25,9,16,26,-6,21,14,-28,-3,49,7
14,6,-53,35,4,29,4,9,16,22,-13,20,53,12
28,26,-35,53,12,46,11,31,33,53,19,37,64,28
26,24,-42,51,22,45,18,33,42,50,24,32,58,31
18,15,-61,49,26,34,5,25,30,37,1,31,49,24
18,15,-61,49,26,34,5,25,30,37,1,31,49,24
19,26,-62,52,20,35,1,29,28,44,-2,34,60,26
14,23,-41,42,16,29,14,36,37,41,9,33,79,26
13,24,-34,27,20,16,9,35,27,31,-1,42,93,22
31,30,-40,32,30,20,-1,34,24,36,-8,53,92,29
37,27,-45,35,35,21,-6,32,43,42,1,53,73,33
26,22,-48,16,41,-2,-9,24,55,27,-13,45,66,23
31,14,-35,13,52,-8,7,17,59,20,-30,38,85,18
31,14,-35,13,52,-8,7,17,59,20,-30,38,85,18
35,26,-24,27,54,11,23,24,59,35,-17,39,100,26
31,30,-35,33,58,17,29,29,60,40,-1,46,93,33
32,25,-45,35,62,18,34,27,69,33,-2,56,89,33
36,37,-35,39,58,22,34,32,72,28,-4,59,101,31
36,31,-41,37,54,10,25,34,66,24,-12,47,102,31
26,25,-68,27,52,-1,17,11,57,21,-31,28,77,20
21,28,-71,28,38,11,21,-8,42,21,-38,23,59,2
21,28,-71,28,38,11,21,-8,42,21,-38,23,59,2
26,27,-58,41,28,26,7,16,35,27,-24,40,71,7
35,42,-59,52,42,33,-15,52,44,38,-5,59,92,25
30,43,-56,54,51,43,-8,48,47,42,5,61,93,25
26,45,-37,63,48,60,12,37,43,58,7,52,93,28
42,63,-35,87,72,89,11,55,57,109,6,60,98,60
67,72,-57,105,115,128,3,53,81,172,3,63,88,106
67,72,-57,105,115,128,3,53,81,172,3,63,88,106
77,81,-64,119,139,170,1,23,89,238,-7,36,66,153
87,100,-60,149,148,215,3,16,96,307,-6,18,49,203
108,137,-66,188,169,266,9,38,113,374,13,34,58,245
123,164,-50,225,184,310,11,77,126,428,51,65,96,279
131,169,-24,246,177,331,3,108,135,449,83,88,122,299
136,176,-27,239,155,330,-3,95,119,446,73,95,121,296
130,163,-27,220,147,314,12,58,100,439,47,90,113,285
123,150,-29,213,154,291,33,41,110,430,39,69,95,277
123,150,-29,213,154,291,33,41,110,430,39,69,95,277
118,158,-57,205,157,277,24,25,117,417,18,35,66,273
123,160,-65,198,155,288,2,16,101,414,5,26,55,277
117,157,-51,189,149,271,-2,21,90,406,23,34,63,262
101,133,-55,160,152,221,9,23,94,365,26,31,68,226
91,119,-48,151,152,209,13,42,97,333,31,40,84,211
89,130,-25,159,127,203,9,65,93,313,51,66,104,198
86,115,-27,134,96,162,-2,51,87,261,32,63,83,164
82,109,-41,107,92,138,-10,31,82,219,-6,45,61,146
82,109,-41,107,92,138,-10,31,82,219,-6,45,61,146
84,115,-35,116,94,143,4,39,83,210,4,54,82,145
78,106,-29,109,68,123,19,39,83,183,11,68,91,129
66,94,-37,80,53,86,7,15,89,147,-18,46,74,112
63,82,-32,87,76,73,4,15,104,135,-16,31,80,107
63,84,-16,92,85,70,26,46,105,116,9,60,102,86
57,82,-8,72,59,57,33,73,92,82,14,95,108,66
57,82,-8,72,59,57,33,73,92,82,14,95,108,66
46,70,-2,54,37,41,21,72,89,65,18,87,105,61
37,60,-5,42,31,22,13,59,83,49,28,63,101,41
26,31,-22,23,30,4,14,67,66,12,22,55,83,11
5,12,-33,-1,30,-15,26,65,59,-15,0,42,64,-5
-3,6,-33,-12,28,-23,33,36,68,-17,-9,21,51,-4
14,15,-29,8,35,-14,21,29,67,-13,0,24,55,5
14,15,-29,8,35,-14,21,29,67,-13,0,24,55,5
29,49,-18,28,44,-3,10,57,59,-8,13,52,68,19
32,57,-5,36,46,10,19,85,62,3,30,68,67,28
33,56,0,53,47,29,30,101,63,15,52,74,59,30
32,56,5,63,47,33,31,106,54,11,64,86,53,31
30,38,9,48,27,14,23,93,40,-5,51,91,45,17
27,14,2,20,2,-17,15,73,15,-22,19,74,29,-4
27,14,2,20,2,-17,15,73,15,-22,19,74,29,-4
24,-6,-2,1,-10,-32,25,52,2,-35,-7,58,8,-4
16,-7,2,-7,-27,-38,36,38,1,-34,-14,59,-3,-5
-2,-21,1,-22,-45,-56,26,45,-15,-41,-10,56,-5,-32
-4,-47,5,-23,-26,-64,11,68,-21,-49,8,66,-2,-41
21,-23,15,-10,13,-51,23,84,6,-39,24,87,0,-12
37,-9,16,-11,29,-48,38,88,31,-29,21,92,0,5
37,-9,16,-11,29,-48,38,88,31,-29,21,92,0,5
33,-22,9,-17,27,-60,32,92,30,-30,17,88,-1,-2
34,-24,12,-8,36,-60,33,94,33,-31,32,90,4,0
30,-32,23,-6,42,-48,38,81,38,-35,34,81,1,4
20,-33,14,-15,30,-39,30,52,25,-33,1,52,-17,-3
28,-24,4,-2,33,-32,39,40,23,-20,1,39,-19,-1
28,-24,4,-2,33,-32,39,40,23,-20,1,39,-19,-1
38,-13,15,19,55,-18,63,56,35,-8,39,59,-4,10
30,-6,24,29,49,0,59,75,23,-6,47,74,3,2
28,-12,24,32,27,4,41,84,3,-5,40,73,-2,-5
38,-10,27,29,32,-4,45,83,14,3,51,79,6,9
50,-7,31,30,54,-1,58,71,36,15,50,88,20,29
59,2,27,35,54,-2,60,69,41,20,42,79,13,33
52,6,20,21,59,-20,62,74,42,8,46,65,-2,24
52,6,20,21,59,-20,62,74,42,8,46,65,-2,24
31,-22,8,4,86,-31,69,54,41,-13,34,53,-8,11
18,-30,-2,4,83,-29,67,34,29,-18,19,46,-5,-4
25,-21,-3,8,62,-28,58,48,26,-7,25,43,-4,0
43,-25,0,11,61,-23,58,55,30,-1,32,37,-7,19
51,-17,12,18,65,-11,65,53,22,-1,39,38,-2,28
57,4,27,37,66,7,68,79,29,9,69,70,17,34
63,25,31,58,73,29,66,106,36,32,96,104,38,37
63,25,31,58,73,29,66,106,36,32,96,104,38,37
48,17,23,66,70,33,51,99,14,33,94,106,41,26
33,-3,19,49,60,10,42,88,-3,12,82,96,32,18
36,6,19,29,53,-5,53,89,1,1,75,92,36,16
50,9,25,33,33,-9,57,88,2,-4,68,92,45,13
59,10,30,36,23,-22,51,84,-3,-15,61,84,46,18
58,6,22,13,30,-37,56,79,-4,-30,56,77,49,18
58,6,22,13,30,-37,56,79,-4,-30,56,77,49,18
50,-6,6,6,31,-33,63,77,-4,-35,59,90,48,9
48,5,-3,25,38,-21,59,76,5,-11,62,95,38,7
57,7,1,25,60,-18,64,64,19,-3,55,74,28,13
58,2,-5,12,66,-22,64,53,22,-25,46,52,9,13
54,3,-21,22,58,-24,56,57,20,-31,54,53,-1,17
58,4,-17,32,70,-16,73,63,33,-12,61,63,12,30
58,4,-17,32,70,-16,73,63,33,-12,61,63,12,30
63,13,-3,20,90,-10,95,55,42,-8,50,60,22,37
61,8,4,20,97,-7,97,57,45,-10,51,59,14,41
62,4,-2,33,89,-2,101,64,49,-4,63,60,11,40
56,1,-4,22,79,-11,116,46,42,-7,51,39,1,24
39,-18,3,7,79,-18,130,28,33,-12,36,27,-10,19
38,-7,8,18,85,-7,135,41,44,1,49,43,-2,36
38,-7,8,18,85,-7,135,41,44,1,49,43,-2,36
51,12,3,35,91,7,128,59,64,19,64,46,-1,50
57,18,-4,33,89,-1,116,58,61,25,57,36,-9,44
49,19,0,35,78,-4,123,62,46,18,55,46,-4,33
50,4,1,42,74,4,134,68,51,5,64,58,-2,38
57,3,-3,35,78,2,127,61,59,6,59,54,-3,44
61,14,-4,29,73,-6,116,58,52,9,55,57,1,42
61,14,-4,29,73,-6,116,58,52,9,55,57,1,42
57,19,-1,37,64,0,121,64,47,9,70,65,4,42
42,24,-2,38,61,7,126,63,41,9,77,56,4,39
31,-1,-12,18,44,-10,107,56,17,-6,63,38,7,18
23,-16,-15,-4,24,-30,94,51,1,-16,53,28,14,7
27,-5,-3,1,24,-23,111,56,18,-8,59,35,24,23
27,-5,-3,1,24,-23,111,56,18,-8,59,35,24,23
41,11,5,18,30,-17,128,63,29,2,65,46,30,32
49,22,2,13,43,-31,124,46,22,1,51,44,28,28
54,15,-1,4,54,-32,116,29,26,-1,34,43,26,31
59,24,-1,11,58,-15,113,46,31,8,42,57,34,43
66,35,4,11,63,-17,117,63,35,18,51,65,37,56
72,41,5,13,67,-23,125,55,49,17,46,57,31,61
80,53,-2,31,72,-3,123,57,59,21,52,55,31,63
80,53,-2,31,72,-3,123,57,59,21,52,55,31,63
81,49,5,44,89,14,123,68,63,32,70,49,37,69
67,50,11,33,95,4,128,60,68,28,59,30,31,69
57,43,-7,29,76,-3,127,50,60,18,32,23,25,52
59,24,-11,36,64,6,123,56,42,17,40,34,25,35
48,30,-3,34,64,5,112,52,34,10,52,26,15,30
36,22,-10,33,63,-2,102,35,34,-3,44,9,4,33
36,22,-10,33,63,-2,102,35,34,-3,44,9,4,33
35,14,-19,29,57,-2,105,27,27,0,39,7,2,33
36,28,-15,24,55,-2,111,29,22,-1,41,10,9,31
38,35,-7,32,61,2,120,33,35,-3,36,7,21,40
33,30,-3,25,65,-5,119,29,44,4,22,1,24,40
32,22,-1,3,64,-22,105,19,35,-4,20,3,29,36
50,43,4,20,62,-15,107,44,45,1,43,24,45,47
64,67,11,48,63,7,119,75,62,27,64,49,46,63
64,67,11,48,63,7,119,75,62,27,64,49,46,63
54,52,8,39,68,8,108,53,45,28,58,39,27,63
46,42,-12,22,55,-7,89,23,24,12,42,13,25,52
55,43,-20,30,40,-1,93,40,34,17,41,20,32,54
61,52,-10,43,50,15,107,59,40,31,50,33,34,60
52,58,-10,43,52,11,106,48,31,36,54,33,35,52
52,58,-10,43,52,11,106,48,31,36,54,33,35,52
35,34,-12,28,32,-2,102,34,33,20,45,30,32,38
26,22,-13,5,29,-12,103,27,32,4,34,26,30,28
30,25,-19,1,43,-19,112,27,27,7,37,26,32,30
28,27,-16,3,38,-26,115,30,26,10,32,27,29,28
23,25,-13,-4,24,-28,104,25,23,0,21,26,29,15
26,11,-20,-4,31,-26,93,25,25,-10,32,26,33,11
26,11,-20,-4,31,-26,93,25,25,-10,32,26,33,11
21,12,-20,-2,36,-31,92,24,24,-10,33,25,26,18
18,24,-9,-1,40,-31,103,22,25,-2,25,21,22,25
30,41,-8,5,54,-18,111,46,45,9,42,31,42,32
38,48,-4,4,59,-10,103,59,53,7,53,40,62,36
31,24,3,-2,51,-15,97,35,37,-8,35,28,51,29
24,33,-5,21,51,1,99,38,36,5,46,30,38,29
24,33,-5,21,51,1,99,38,36,5,46,30,38,29
44,77,-6,66,67,44,113,90,59,41,98,61,55,53
67,84,1,70,75,58,126,97,68,54,110,68,62,75
55,54,-2,31,65,26,116,41,55,38,61,21,36,64
25,21,-3,13,57,1,93,12,48,22,26,-16,27,40
23,35,0,29,61,12,87,29,55,31,41,9,51,38
23,35,0,29,61,12,87,29,55,31,41,9,51,38
47,63,7,37,69,31,109,58,63,43,67,52,67,54
58,62,10,37,63,31,122,81,65,36,74,70,67,59
42,50,3,25,53,17,107,72,63,28,62,55,66,44
26,27,-7,4,57,1,86,43,62,16,53,29,55,29
28,26,-16,6,58,-2,70,38,60,10,53,25,38,28
30,39,-28,18,44,3,64,40,59,21,44,23,31,34
30,39,-28,18,44,3,64,40,59,21,44,23,31,34
33,41,-27,8,41,-2,65,21,57,25,26,2,27,37
41,50,-16,-5,43,-11,57,15,58,24,21,4,36,43
39,39,-9,3,39,0,50,43,64,36,34,24,57,52
41,38,-5,17,39,18,59,64,63,45,48,30,65,54
56,63,-1,24,40,20,66,59,64,45,49,46,66,59
58,64,2,26,44,13,54,50,69,47,44,63,64,64
58,64,2,26,44,13,54,50,69,47,44,63,64,64
39,41,-7,9,44,10,4,46,60,38,29,41,49,45
23,21,-5,0,37,15,-28,51,54,24,29,21,42,29
27,28,15,22,42,25,93,60,72,30,46,43,51,41
46,51,16,45,62,34,75,64,79,51,61,60,41,49
59,52,12,45,59,37,-28,72,69,61,70,64,24,48
59,52,12,45,59,37,-28,72,69,61,70,64,24,48
48,42,32,35,41,31,649,91,68,48,68,74,28,48
32,19,51,32,55,30,1670,90,77,39,65,74,30,53
27,6,50,30,70,37,1664,70,88,61,59,61,9,59
35,15,59,32,57,41,1031,56,84,69,39,49,-2,64
51,8,67,33,46,32,881,58,74,55,33,46,-1,66
50,5,52,31,46,29,915,73,72,59,52,55,-11,63
50,5,52,31,46,29,915,73,72,59,52,55,-11,63
30,8,49,35,40,45,750,78,70,74,63,65,-22,62
28,1,62,38,43,45,691,63,66,74,58,60,-23,61
47,2,60,29,59,26,700,51,74,69,49,48,-16,63
61,3,61,26,57,22,681,54,91,60,38,50,-9,63
55,10,81,46,51,45,681,62,89,64,47,60,3,58
36,-2,90,50,58,53,659,64,79,72,60,58,16,55
31,-7,86,34,61,44,630,64,86,71,50,56,17,65
52,28,77,36,56,42,616,76,83,83,50,74,9,77
68,35,72,54,58,38,610,86,74,86,62,81,0,74
68,35,72,54,58,38,610,86,74,86,62,81,0,74
61,20,76,58,56,34,593,74,82,72,63,68,2,72
43,11,75,45,45,34,573,63,86,63,56,63,3,65
28,-3,62,38,42,37,567,61,70,53,49,63,-1,51
35,-2,55,37,53,41,566,55,71,42,44,57,-4,52
59,7,62,38,62,42,561,57,91,51,52,61,-5,68
56,15,61,40,62,37,555,68,83,65,54,70,-3,64
56,15,61,40,62,37,555,68,83,65,54,70,-3,64
29,-3,58,26,46,24,554,55,60,48,32,53,-7,38
23,-30,60,5,39,9,548,32,56,23,11,29,-11,32
33,-17,58,6,44,5,527,35,59,27,10,29,-5,39
44,6,59,24,41,21,514,54,61,43,24,39,2,45
51,10,61,29,38,29,521,58,62,44,31,37,0,44
38,-6,63,25,56,24,539,55,62,40,31,33,1,41
28,-18,68,33,66,33,532,61,68,47,36,39,14,47
28,-18,68,33,66,33,532,61,68,47,36,39,14,47
47,1,78,33,55,38,509,58,74,59,32,40,25,57
61,12,79,30,57,33,511,46,70,54,28,33,28,59
